Freq[Hz]  Imp[Ohm]  Phase[Deg]
5.00000      3.929    13.542
5.07273      3.931    13.602
5.14651      3.933    13.681
5.22137      3.936    13.790
5.29732      3.939    13.912
5.37437      3.943    14.050
5.45254      3.947    14.191
5.53185      3.951    14.336
5.61231      3.955    14.483
5.69394      3.959    14.634
5.77676      3.963    14.787
5.86079      3.967    14.943
5.94604      3.972    15.101
6.03252      3.976    15.263
6.12027      3.981    15.427
6.20929      3.985    15.594
6.29961      3.990    15.764
6.39124      3.995    15.936
6.48420      4.000    16.112
6.57851      4.006    16.290
6.67420      4.011    16.470
6.77128      4.017    16.654
6.86977      4.022    16.840
6.96969      4.028    17.029
7.07107      4.034    17.220
7.17392      4.040    17.415
7.27827      4.047    17.612
7.38413      4.053    17.812
7.49154      4.060    18.015
7.60050      4.067    18.220
7.71105      4.074    18.428
7.82321      4.081    18.639
7.93701      4.088    18.853
8.05245      4.096    19.070
8.16958      4.104    19.289
8.28841      4.112    19.511
8.40896      4.120    19.736
8.53128      4.128    19.964
8.65537      4.137    20.195
8.78126      4.146    20.428
8.90899      4.155    20.664
9.03857      4.164    20.903
9.17004      4.174    21.145
9.30342      4.184    21.390
9.43874      4.194    21.637
9.57603      4.204    21.888
9.71532      4.215    22.141
9.85663      4.226    22.397
10.0000      4.237    22.655
10.1455      4.249    22.917
10.2930      4.261    23.181
10.4427      4.273    23.448
10.5946      4.285    23.718
10.7487      4.298    23.991
10.9051      4.311    24.266
11.0637      4.324    24.545
11.2246      4.338    24.826
11.3879      4.352    25.110
11.5535      4.367    25.396
11.7216      4.382    25.686
11.8921      4.397    25.978
12.0650      4.413    26.272
12.2405      4.429    26.570
12.4186      4.446    26.870
12.5992      4.463    27.173
12.7825      4.480    27.479
12.9684      4.498    27.787
13.1570      4.516    28.098
13.3484      4.535    28.411
13.5426      4.555    28.727
13.7395      4.575    29.046
13.9394      4.595    29.367
14.1421      4.616    29.691
14.3478      4.637    30.018
14.5565      4.659    30.347
14.7683      4.682    30.678
14.9831      4.705    31.013
15.2010      4.729    31.349
15.4221      4.754    31.688
15.6464      4.779    32.030
15.8740      4.804    32.374
16.1049      4.831    32.721
16.3392      4.858    33.070
16.5768      4.886    33.421
16.8179      4.915    33.775
17.0626      4.944    34.131
17.3107      4.974    34.489
17.5625      5.005    34.850
17.8180      5.037    35.213
18.0771      5.069    35.577
18.3401      5.103    35.942
18.6068      5.137    36.308
18.8775      5.172    36.670
19.1521      5.208    37.027
19.4306      5.242    37.377
19.7133      5.273    37.741
20.0000      5.302    38.145
20.2909      5.329    38.628
20.5860      5.366    39.177
20.8855      5.411    39.743
21.1893      5.466    40.287
21.4975      5.529    40.755
21.8102      5.588    41.149
22.1274      5.638    41.551
22.4492      5.692    41.987
22.7758      5.742    42.469
23.1071      5.805    42.993
23.4432      5.878    43.491
23.7841      5.957    43.926
24.1301      6.036    44.293
24.4811      6.110    44.629
24.8372      6.182    44.964
25.1984      6.249    45.323
25.5649      6.317    45.738
25.9368      6.395    46.187
26.3141      6.475    46.657
26.6968      6.572    47.110
27.0851      6.670    47.507
27.4791      6.768    47.882
27.8788      6.870    48.232
28.2843      6.966    48.589
28.6957      7.070    48.971
29.1131      7.178    49.355
29.5365      7.289    49.760
29.9661      7.415    50.160
30.4020      7.546    50.528
30.8442      7.683    50.875
31.2929      7.829    51.176
31.7480      7.973    51.438
32.2098      8.118    51.696
32.6783      8.264    51.971
33.1536      8.418    52.276
33.6359      8.587    52.582
34.1251      8.768    52.850
34.6215      8.956    53.072
35.1250      9.147    53.252
35.6359      9.334    53.432
36.1543      9.529    53.646
36.6802      9.735    53.886
37.2137      9.961    54.136
37.7550     10.205    54.363
38.3041     10.465    54.554
38.8613     10.741    54.704
39.4265     11.028    54.814
40.0000     11.328    54.909
40.5818     11.651    54.978
41.1721     11.990    55.013
41.7710     12.353    55.014
42.3785     12.740    54.960
42.9949     13.142    54.861
43.6203     13.569    54.732
44.2548     14.023    54.563
44.8985     14.503    54.365
45.5515     15.028    54.131
46.2141     15.596    53.827
46.8863     16.206    53.449
47.5683     16.869    52.981
48.2602     17.580    52.408
48.9621     18.343    51.728
49.6743     19.165    50.928
50.3968     20.043    50.000
51.1299     20.983    48.940
51.8736     21.984    47.752
52.6281     23.068    46.434
53.3936     24.250    44.958
54.1702     25.540    43.293
54.9581     26.955    41.397
55.7575     28.503    39.211
56.5685     30.178    36.675
57.3914     31.954    33.737
58.2261     33.800    30.357
59.0730     35.665    26.498
59.9323     37.467    22.141
60.8040     39.108    17.290
61.6884     40.438    11.998
62.5857     41.343     6.390
63.4960     41.762     0.611
64.4196     41.662    -5.178
65.3566     41.103   -10.836
66.3073     40.172   -16.290
67.2717     38.920   -21.491
68.2502     37.407   -26.385
69.2429     35.689   -30.912
70.2501     33.835   -35.009
71.2719     31.929   -38.635
72.3086     30.062   -41.793
73.3603     28.287   -44.525
74.4274     26.637   -46.890
75.5099     25.112   -48.952
76.6083     23.703   -50.757
77.7226     22.394   -52.327
78.8531     21.175   -53.672
80.0000     20.042   -54.788
81.1636     18.999   -55.684
82.3442     18.051   -56.393
83.5419     17.193   -56.954
84.7570     16.420   -57.410
85.9899     15.716   -57.801
87.2406     15.060   -58.128
88.5096     14.448   -58.387
89.7970     13.871   -58.569
91.1031     13.326   -58.652
92.4282     12.825   -58.641
93.7726     12.360   -58.557
95.1366     11.934   -58.409
96.5204     11.545   -58.223
97.9243     11.186   -58.022
99.3486     10.853   -57.818
100.794     10.535   -57.608
102.260     10.233   -57.374
103.747      9.946   -57.113
105.256      9.672   -56.816
106.787      9.415   -56.486
108.340      9.171   -56.128
109.916      8.941   -55.733
111.515      8.731   -55.326
113.137      8.531   -54.917
114.783      8.344   -54.506
116.452      8.170   -54.116
118.146      8.000   -53.748
119.865      7.833   -53.387
121.608      7.667   -53.007
123.377      7.504   -52.586
125.171      7.347   -52.114
126.992      7.202   -51.609
128.839      7.067   -51.103
130.713      6.936   -50.592
132.615      6.809   -50.059
134.543      6.692   -49.513
136.500      6.576   -48.947
138.486      6.470   -48.359
140.500      6.375   -47.790
142.544      6.282   -47.250
144.617      6.191   -46.721
146.721      6.101   -46.186
148.855      6.010   -45.613
151.020      5.931   -45.022
153.217      5.855   -44.439
155.445      5.786   -43.854
157.706      5.728   -43.331
160.000      5.664   -42.871
162.327      5.599   -42.419
164.688      5.535   -41.987
167.084      5.463   -41.531
169.514      5.397   -41.045
171.980      5.329   -40.549
174.481      5.263   -40.022
177.019      5.205   -39.508
179.594      5.138   -38.983
182.206      5.077   -38.419
184.856      5.014   -37.826
187.545      4.954   -37.169
190.273      4.904   -36.487
193.041      4.857   -35.829
195.849      4.811   -35.163
198.697      4.770   -34.484
201.587      4.734   -33.827
204.520      4.698   -33.189
207.494      4.667   -32.572
210.512      4.635   -31.990
213.574      4.599   -31.398
216.681      4.567   -30.785
219.833      4.536   -30.161
223.030      4.509   -29.528
226.274      4.491   -28.964
229.565      4.464   -28.461
232.905      4.433   -27.929
236.292      4.401   -27.342
239.729      4.369   -26.687
243.216      4.346   -25.980
246.754      4.337   -25.327
250.343      4.329   -24.789
253.984      4.320   -24.362
257.678      4.298   -23.980
261.426      4.266   -23.524
265.229      4.234   -22.969
269.087      4.202   -22.309
273.001      4.180   -21.561
276.972      4.171   -20.819
281.000      4.167   -20.144
285.088      4.167   -19.540
289.234      4.167   -19.004
293.441      4.167   -18.520
297.709      4.167   -18.087
302.040      4.167   -17.720
306.433      4.163   -17.421
310.890      4.154   -17.182
315.412      4.131   -16.939
320.000      4.099   -16.588
324.655      4.067   -16.109
329.377      4.036   -15.500
334.168      4.013   -14.781
339.028      4.004   -14.053
343.959      4.000   -13.376
348.962      4.000   -12.756
354.038      4.000   -12.186
359.188      4.000   -11.647
364.412      4.000   -11.129
369.713      4.000   -10.629
375.090      4.000   -10.142
380.546      4.000    -9.668
386.081      4.000    -9.203
391.697      4.000    -8.747
397.394      4.000    -8.299
403.175      4.000    -7.857
409.039      4.000    -7.421
414.989      4.000    -6.990
421.025      4.000    -6.563
427.149      4.000    -6.141
433.362      4.000    -5.722
439.665      4.000    -5.305
446.060      4.000    -4.891
452.548      4.000    -4.479
459.131      4.000    -4.069
465.809      4.000    -3.659
472.584      4.000    -3.250
479.458      4.000    -2.841
486.432      4.000    -2.431
493.507      4.000    -2.021
500.686      4.000    -1.608
507.968      4.000    -1.193
515.357      4.000    -0.776
522.853      4.000    -0.354
530.458      4.000     0.073
538.174      4.000     0.506
546.002      4.000     0.947
553.943      4.000     1.398
562.001      4.000     1.862
570.175      4.000     2.344
578.469      4.000     2.853
586.883      4.000     3.408
595.419      4.004     4.015
604.080      4.013     4.669
612.866      4.036     5.309
621.780      4.067     5.833
630.824      4.099     6.223
640.000      4.131     6.479
649.309      4.154     6.623
658.753      4.163     6.757
668.335      4.167     6.945
678.056      4.167     7.194
687.919      4.167     7.502
697.925      4.167     7.854
708.077      4.167     8.251
718.376      4.167     8.706
728.825      4.171     9.225
739.426      4.180     9.799
750.181      4.202    10.369
761.093      4.234    10.838
772.163      4.266    11.188
783.394      4.298    11.419
794.789      4.320    11.552
806.349      4.329    11.690
818.078      4.333    11.898
829.977      4.333    12.195
842.050      4.336    12.587
854.298      4.343    13.055
866.724      4.361    13.552
879.330      4.389    13.993
892.120      4.421    14.334
905.097      4.453    14.567
918.262      4.479    14.707
931.618      4.493    14.824
945.169      4.499    14.995
958.917      4.500    15.262
972.864      4.504    15.627
987.015      4.513    16.074
1001.37      4.536    16.537
1015.94      4.567    16.923
1030.71      4.599    17.214
1045.71      4.631    17.412
1060.92      4.654    17.544
1076.35      4.664    17.713
1092.00      4.673    17.977
1107.89      4.686    18.322
1124.00      4.711    18.681
1140.35      4.743    18.971
1156.94      4.775    19.172
1173.77      4.804    19.289
1190.84      4.823    19.359
1208.16      4.830    19.466
1225.73      4.833    19.664
1243.56      4.837    19.960
1261.65      4.846    20.342
1280.00      4.869    20.745
1298.62      4.901    21.079
1317.51      4.933    21.326
1336.67      4.964    21.487
1356.11      4.987    21.580
1375.84      4.996    21.695
1395.85      5.000    21.900
1416.15      5.004    22.204
1436.75      5.013    22.600
1457.65      5.036    23.022
1478.85      5.067    23.385
1500.36      5.099    23.674
1522.19      5.131    23.895
1544.33      5.154    24.076
1566.79      5.168    24.303
1589.58      5.183    24.617
1612.70      5.207    24.970
1636.16      5.238    25.294
1659.95      5.270    25.564
1684.10      5.301    25.792
1708.60      5.325    26.006
1733.45      5.343    26.276
1758.66      5.369    26.600
1784.24      5.401    26.910
1810.19      5.433    27.201
1836.52      5.468    27.463
1863.24      5.500    27.704
1890.34      5.532    27.955
1917.83      5.567    28.194
1945.73      5.599    28.424
1974.03      5.635    28.645
2002.74      5.667    28.855
2031.87      5.698    29.081
2061.43      5.734    29.300
2091.41      5.766    29.514
2121.83      5.802    29.723
2152.69      5.833    29.925
2184.01      5.865    30.146
2215.77      5.901    30.366
2248.00      5.933    30.585
2280.70      5.970    30.803
2313.87      6.003    31.012
2347.53      6.037    31.238
2381.68      6.072    31.474
2416.32      6.108    31.717
2451.46      6.148    31.966
2487.12      6.191    32.194
2523.30      6.232    32.406
2560.00      6.273    32.623
2597.24      6.320    32.832
2635.01      6.368    32.995
2673.34      6.409    33.136
2712.23      6.449    33.290
2751.68      6.486    33.461
2791.70      6.526    33.650
2832.31      6.568    33.843
2873.50      6.609    34.048
2915.30      6.658    34.242
2957.70      6.709    34.384
3000.72      6.751    34.508
3044.37      6.792    34.646
3088.65      6.830    34.801
3133.58      6.869    34.980
3179.16      6.911    35.176
3225.40      6.953    35.388
3272.31      7.006    35.587
3319.91      7.057    35.739
3368.20      7.100    35.886
3417.19      7.144    36.053
3466.89      7.189    36.230
3517.32      7.234    36.418
3568.48      7.279    36.632
3620.39      7.333    36.849
3673.05      7.392    37.025
3726.47      7.442    37.196
3780.67      7.500    37.370
3835.67      7.558    37.509
3891.46      7.608    37.655
3948.06      7.667    37.810
4005.49      7.725    37.935
4063.75      7.775    38.070
4122.86      7.833    38.217
4182.82      7.892    38.335
4243.66      7.942    38.466
4305.39      8.000    38.610
4368.01      8.058    38.729
4431.55      8.108    38.862
4496.01      8.167    39.009
4561.40      8.225    39.135
4627.75      8.275    39.278
4695.06      8.333    39.441
4763.35      8.392    39.590
4832.64      8.444    39.768
4902.93      8.508    39.968
4974.24      8.576    40.149
5046.60      8.646    40.316
5120.00      8.722    40.458
5194.47      8.796    40.566
5270.03      8.867    40.647
5346.68      8.930    40.733
5424.45      8.994    40.839
5503.35      9.059    40.947
5583.40      9.120    41.071
5664.61      9.188    41.206
5747.01      9.253    41.341
5830.60      9.320    41.493
5915.41      9.391    41.650
6001.45      9.464    41.810
6088.74      9.543    41.967
6177.30      9.626    42.105
6267.15      9.707    42.229
6358.31      9.793    42.337
6450.80      9.874    42.436
6544.62      9.959    42.528
6639.82     10.041    42.614
6736.40     10.126    42.695
6834.38     10.207    42.773
6933.79     10.293    42.848
7034.64     10.374    42.921
7136.96     10.459    42.993
7240.77     10.541    43.065
7346.09     10.626    43.138
7452.94     10.707    43.213
7561.35     10.793    43.293
7671.33     10.875    43.379
7782.91     10.962    43.476
7896.12     11.051    43.574
8010.97     11.144    43.671
8127.49     11.243    43.754
8245.71     11.343    43.814
8365.65     11.439    43.861
8487.33     11.536    43.898
8610.78     11.626    43.940
8736.03     11.720    43.994
8863.09     11.813    44.054
8992.01     11.913    44.114
9122.80     12.012    44.160
9255.50     12.109    44.205
9390.12     12.209    44.249
9526.70     12.304    44.301
9665.27     12.405    44.363
9805.86     12.509    44.420
9948.49     12.612    44.483
10093.2     12.727    44.531
10240.0     12.836    44.559
10388.9     12.944    44.593
10540.1     13.061    44.612
10693.4     13.169    44.617
10848.9     13.277    44.634
11006.7     13.392    44.643
11166.8     13.500    44.645
11329.2     13.610    44.660
11494.0     13.729    44.665
11661.2     13.844    44.650
11830.8     13.956    44.633
12002.9     14.073    44.600
12177.5     14.177    44.558
12354.6     14.276    44.534
12534.3     14.373    44.534
12716.6     14.469    44.564
12901.6     14.574    44.618
13089.2     14.686    44.672
13279.6     14.801    44.725
13472.8     14.924    44.770
13668.8     15.048    44.797
13867.6     15.167    44.821
14069.3     15.286    44.858
14273.9     15.413    44.901
14481.5     15.545    44.937
14692.2     15.681    44.964
14905.9     15.825    44.968
15122.7     15.964    44.947
15342.7     16.096    44.921
15565.8     16.229    44.894
15792.2     16.357    44.873
16021.9     16.487    44.862
16255.0     16.621    44.851
16491.4     16.752    44.843
16731.3     16.890    44.839
16974.7     17.029    44.831
17221.6     17.171    44.819
17472.1     17.319    44.792
17726.2     17.460    44.753
17984.0     17.597    44.721
18245.6     17.736    44.697
18511.0     17.875    44.683
18780.2     18.022    44.677
19053.4     18.180    44.660
19330.5     18.338    44.623
19611.7     18.497    44.570
19897.0     18.654    44.503
20186.4     18.808    44.429
20480.0     18.959    44.350
20777.9     19.108    44.271
21080.1     19.255    44.195
21386.7     19.402    44.120
21697.8     19.549    44.046
22013.4     19.697    43.973
22333.6     19.844    43.900
22658.4     19.991    43.827
22988.0     20.138    43.754
23322.4     20.285    43.682
23661.6     20.432    43.609
24005.8     20.579    43.537
24355.0     20.727    43.466
24709.2     20.874    43.394
25068.6     21.021    43.323
25433.2     21.168    43.253
25803.2     21.315    43.183
26178.5     21.462    43.114
26559.3     21.609    43.045
26945.6     21.757    42.978
27337.5     21.904    42.911
27735.2     22.051    42.845
28138.6     22.198    42.781
28547.9     22.345    42.717
28963.1     22.492    42.655
29384.4     22.639    42.594
29811.8     22.787    42.534
30245.4     22.934    42.476
30685.3     23.081    42.420
31131.7     23.228    42.365
31584.5     23.375    42.312
32043.9     23.522    42.261
32510.0     23.669    42.212
32982.8     23.817    42.165
33462.6     23.964    42.121
33949.3     24.111    42.079
34443.1     24.258    42.040
34944.1     24.405    42.004
35452.4     24.552    41.971
35968.0     24.699    41.942
36491.2     24.846    41.917
37022.0     24.994    41.897
37560.5     25.141    41.884
38106.8     25.274    41.877
38661.1     25.394    41.879
39223.4     25.483    41.884
39793.9     25.552    41.890
