Freq[Hz]     dBSPL  Phase[Deg]
5.00000     88.435  -110.384
5.07273     88.320  -110.734
5.14651     88.170  -111.164
5.22137     87.967  -111.706
5.29732     87.741  -112.237
5.37437     87.490  -112.767
5.45254     87.239  -113.227
5.53185     86.988  -113.633
5.61231     86.737  -113.992
5.69394     86.486  -114.309
5.77676     86.235  -114.590
5.86079     85.984  -114.836
5.94604     85.733  -115.052
6.03252     85.482  -115.238
6.12027     85.231  -115.397
6.20929     84.980  -115.530
6.29961     84.729  -115.638
6.39124     84.478  -115.722
6.48420     84.227  -115.783
6.57851     83.976  -115.822
6.67420     83.725  -115.840
6.77128     83.474  -115.837
6.86977     83.223  -115.813
6.96969     82.972  -115.770
7.07107     82.721  -115.707
7.17392     82.470  -115.624
7.27827     82.219  -115.523
7.38413     81.968  -115.403
7.49154     81.717  -115.265
7.60050     81.466  -115.109
7.71105     81.215  -114.935
7.82321     80.964  -114.743
7.93701     80.713  -114.533
8.05245     80.461  -114.306
8.16958     80.210  -114.061
8.28841     79.959  -113.799
8.40896     79.708  -113.519
8.53128     79.457  -113.222
8.65537     79.206  -112.907
8.78126     78.955  -112.575
8.90899     78.704  -112.226
9.03857     78.453  -111.859
9.17004     78.202  -111.474
9.30342     77.951  -111.072
9.43874     77.700  -110.653
9.57603     77.449  -110.215
9.71532     77.198  -109.760
9.85663     76.947  -109.286
10.0000     76.696  -108.795
10.1455     76.445  -108.285
10.2930     76.194  -107.756
10.4427     75.943  -107.209
10.5946     75.692  -106.643
10.7487     75.441  -106.058
10.9051     75.190  -105.454
11.0637     74.939  -104.830
11.2246     74.688  -104.186
11.3879     74.437  -103.523
11.5535     74.186  -102.839
11.7216     73.935  -102.134
11.8921     73.684  -101.408
12.0650     73.433  -100.661
12.2405     73.181   -99.892
12.4186     72.930   -99.101
12.5992     72.679   -98.287
12.7825     72.428   -97.450
12.9684     72.177   -96.590
13.1570     71.926   -95.706
13.3484     71.675   -94.797
13.5426     71.424   -93.863
13.7395     71.173   -92.904
13.9394     70.922   -91.918
14.1421     70.671   -90.905
14.3478     70.420   -89.864
14.5565     70.169   -88.795
14.7683     69.918   -87.697
14.9831     69.667   -86.568
15.2010     69.416   -85.408
15.4221     69.165   -84.216
15.6464     68.914   -82.991
15.8740     68.663   -81.731
16.1049     68.412   -80.435
16.3392     68.161   -79.101
16.5768     67.910   -77.729
16.8179     67.659   -76.315
17.0626     67.408   -74.858
17.3107     67.157   -73.356
17.5625     66.906   -71.805
17.8180     66.655   -70.204
18.0771     66.404   -68.546
18.3401     66.153   -66.829
18.6068     65.902   -65.045
18.8775     65.650   -63.186
19.1521     65.399   -61.236
19.4306     65.148   -59.165
19.7133     64.907   -56.947
20.0000     64.686   -54.591
20.2909     64.511   -52.205
20.5860     64.378   -49.984
20.8855     64.248   -48.035
21.1893     64.073   -46.245
21.4975     63.839   -44.364
21.8102     63.555   -42.156
22.1274     63.263   -39.494
22.4492     63.031   -36.503
22.7758     62.885   -33.537
23.1071     62.776   -30.889
23.4432     62.616   -28.495
23.7841     62.358   -25.962
24.1301     62.009   -22.814
24.4811     61.621   -18.669
24.8372     61.314   -13.454
25.1984     61.203    -7.517
25.5649     61.336    -1.427
25.9368     61.697     4.215
26.3141     62.199     8.983
26.6968     62.761    12.707
27.0851     63.312    15.402
27.4791     63.797    17.262
27.8788     64.196    18.558
28.2843     64.503    19.554
28.6957     64.720    20.505
29.1131     64.871    21.620
29.5365     64.984    23.009
29.9661     65.086    24.716
30.4020     65.204    26.712
30.8442     65.357    28.914
31.2929     65.557    31.217
31.7480     65.806    33.507
32.2098     66.099    35.684
32.6783     66.429    37.668
33.1536     66.784    39.394
33.6359     67.148    40.842
34.1251     67.515    42.007
34.6215     67.870    42.885
35.1250     68.199    43.523
35.6359     68.498    43.982
36.1543     68.758    44.331
36.6802     68.983    44.666
37.2137     69.183    45.047
37.7550     69.363    45.508
38.3041     69.532    46.067
38.8613     69.697    46.728
39.4265     69.864    47.491
40.0000     70.044    48.330
40.5818     70.239    49.201
41.1721     70.449    50.071
41.7710     70.676    50.898
42.3785     70.916    51.637
42.9949     71.160    52.267
43.6203     71.405    52.780
44.2548     71.638    53.183
44.8985     71.850    53.529
45.5515     72.038    53.915
46.2141     72.218    54.422
46.8863     72.407    55.084
47.5683     72.630    55.865
48.2602     72.906    56.623
48.9621     73.225    57.192
49.6743     73.565    57.461
50.3968     73.905    57.380
51.1299     74.214    56.993
51.8736     74.483    56.416
52.6281     74.714    55.756
53.3936     74.915    55.095
54.1702     75.099    54.466
54.9581     75.274    53.854
55.7575     75.445    53.219
56.5685     75.608    52.519
57.3914     75.754    51.732
58.2261     75.871    50.880
59.0730     75.956    50.016
59.9323     76.006    49.200
60.8040     76.024    48.496
61.6884     76.017    47.953
62.5857     75.992    47.606
63.4960     75.960    47.465
64.4196     75.928    47.518
65.3566     75.901    47.753
66.3073     75.885    48.143
67.2717     75.878    48.668
68.2502     75.880    49.335
69.2429     75.892    50.175
70.2501     75.929    51.201
71.2719     76.005    52.380
72.3086     76.131    53.639
73.3603     76.317    54.867
74.4274     76.557    55.934
75.5099     76.835    56.745
76.6083     77.135    57.239
77.7226     77.437    57.397
78.8531     77.723    57.250
80.0000     77.978    56.863
81.1636     78.194    56.340
82.3442     78.376    55.787
83.5419     78.533    55.279
84.7570     78.678    54.851
85.9899     78.826    54.477
87.2406     78.982    54.097
88.5096     79.139    53.662
89.7970     79.292    53.149
91.1031     79.434    52.567
92.4282     79.563    51.930
93.7726     79.676    51.251
95.1366     79.771    50.540
96.5204     79.837    49.837
97.9243     79.873    49.234
99.3486     79.896    48.792
100.794     79.918    48.512
102.260     79.953    48.359
103.747     80.015    48.212
105.256     80.076    47.974
106.787     80.112    47.694
108.340     80.114    47.490
109.916     80.080    47.535
111.515     80.045    47.960
113.137     80.056    48.709
114.783     80.130    49.616
116.452     80.272    50.487
118.146     80.461    51.154
119.865     80.659    51.581
121.608     80.851    51.851
123.377     81.039    52.055
125.171     81.234    52.236
126.992     81.449    52.371
128.839     81.688    52.379
130.713     81.940    52.178
132.615     82.185    51.742
134.543     82.402    51.132
136.500     82.592    50.455
138.486     82.763    49.783
140.500     82.924    49.164
142.544     83.095    48.586
144.617     83.283    47.967
146.721     83.482    47.228
148.855     83.680    46.321
151.020     83.864    45.250
153.217     84.027    44.051
155.445     84.165    42.763
157.706     84.276    41.436
160.000     84.363    40.108
162.327     84.432    38.793
164.688     84.481    37.492
167.084     84.508    36.229
169.514     84.514    35.034
171.980     84.500    33.942
174.481     84.472    32.988
177.019     84.442    32.172
179.594     84.415    31.474
182.206     84.399    30.853
184.856     84.390    30.256
187.545     84.381    29.663
190.273     84.366    29.082
193.041     84.340    28.545
195.849     84.306    28.089
198.697     84.265    27.749
201.587     84.224    27.550
204.520     84.191    27.501
207.494     84.175    27.596
210.512     84.187    27.812
213.574     84.236    28.086
216.681     84.331    28.327
219.833     84.467    28.429
223.030     84.637    28.289
226.274     84.818    27.831
229.565     84.986    27.056
232.905     85.121    26.036
236.292     85.217    24.874
239.729     85.272    23.673
243.216     85.298    22.511
246.754     85.306    21.412
250.343     85.305    20.355
253.984     85.293    19.301
257.678     85.265    18.234
261.426     85.211    17.178
265.229     85.123    16.209
269.087     85.006    15.428
273.001     84.882    14.865
276.972     84.760    14.501
281.000     84.656    14.279
285.088     84.569    14.104
289.234     84.482    13.937
293.441     84.383    13.823
297.709     84.269    13.831
302.040     84.143    14.046
306.433     84.027    14.503
310.890     83.932    15.172
315.412     83.866    16.010
320.000     83.831    16.986
324.655     83.828    18.092
329.377     83.868    19.330
334.168     83.971    20.655
339.028     84.158    21.934
343.959     84.435    22.950
348.962     84.773    23.506
354.038     85.149    23.442
359.188     85.509    22.684
364.412     85.798    21.376
369.713     86.014    19.739
375.090     86.154    17.941
380.546     86.216    16.168
386.081     86.228    14.549
391.697     86.208    13.112
397.394     86.164    11.857
403.175     86.104    10.782
409.039     86.038     9.879
414.989     85.970     9.125
421.025     85.906     8.492
427.149     85.846     7.952
433.362     85.787     7.510
439.665     85.737     7.159
446.060     85.697     6.872
452.548     85.667     6.634
459.131     85.651     6.421
465.809     85.647     6.207
472.584     85.651     5.981
479.458     85.667     5.729
486.432     85.695     5.417
493.507     85.727     5.021
500.686     85.758     4.529
507.968     85.783     3.940
515.357     85.793     3.276
522.853     85.782     2.585
530.458     85.750     1.919
538.174     85.701     1.323
546.002     85.638     0.840
553.943     85.570     0.506
562.001     85.512     0.318
570.175     85.476     0.228
578.469     85.468     0.151
586.883     85.485     0.005
595.419     85.519    -0.283
604.080     85.551    -0.742
612.866     85.565    -1.340
621.780     85.556    -2.025
630.824     85.512    -2.711
640.000     85.435    -3.271
649.309     85.351    -3.654
658.753     85.268    -3.870
668.335     85.200    -3.945
678.056     85.162    -3.965
687.919     85.145    -4.027
697.925     85.137    -4.166
708.077     85.127    -4.378
718.376     85.110    -4.627
728.825     85.090    -4.893
739.426     85.061    -5.155
750.181     85.028    -5.389
761.093     84.994    -5.594
772.163     84.960    -5.764
783.394     84.932    -5.908
794.789     84.909    -6.053
806.349     84.892    -6.217
818.078     84.875    -6.413
829.977     84.854    -6.635
842.050     84.830    -6.873
854.298     84.796    -7.106
866.724     84.758    -7.305
879.330     84.720    -7.471
892.120     84.683    -7.618
905.097     84.648    -7.754
918.262     84.615    -7.895
931.618     84.584    -8.066
945.169     84.546    -8.278
958.917     84.494    -8.516
972.864     84.419    -8.734
987.015     84.316    -8.850
1001.37     84.186    -8.754
1015.94     84.045    -8.344
1030.71     83.920    -7.578
1045.71     83.841    -6.492
1060.92     83.844    -5.248
1076.35     83.932    -4.080
1092.00     84.086    -3.183
1107.89     84.278    -2.691
1124.00     84.468    -2.635
1140.35     84.629    -2.930
1156.94     84.747    -3.442
1173.77     84.819    -4.032
1190.84     84.858    -4.604
1208.16     84.865    -5.092
1225.73     84.855    -5.444
1243.56     84.837    -5.654
1261.65     84.814    -5.707
1280.00     84.797    -5.584
1298.62     84.801    -5.305
1317.51     84.835    -4.920
1336.67     84.909    -4.502
1356.11     85.026    -4.146
1375.84     85.182    -3.957
1395.85     85.362    -4.023
1416.15     85.548    -4.385
1436.75     85.721    -5.039
1457.65     85.861    -5.921
1478.85     85.962    -6.931
1500.36     86.022    -7.965
1522.19     86.049    -8.930
1544.33     86.058    -9.779
1566.79     86.060   -10.518
1589.58     86.060   -11.166
1612.70     86.060   -11.740
1636.16     86.062   -12.248
1659.95     86.068   -12.695
1684.10     86.083   -13.096
1708.60     86.111   -13.489
1733.45     86.148   -13.905
1758.66     86.191   -14.368
1784.24     86.235   -14.891
1810.19     86.268   -15.447
1836.52     86.293   -15.986
1863.24     86.313   -16.476
1890.34     86.335   -16.897
1917.83     86.371   -17.269
1945.73     86.421   -17.628
1974.03     86.489   -18.012
2002.74     86.570   -18.457
2031.87     86.661   -18.982
2061.43     86.762   -19.601
2091.41     86.869   -20.329
2121.83     86.983   -21.193
2152.69     87.098   -22.239
2184.01     87.195   -23.475
2215.77     87.263   -24.846
2248.00     87.293   -26.268
2280.70     87.284   -27.624
2313.87     87.252   -28.821
2347.53     87.218   -29.842
2381.68     87.200   -30.740
2416.32     87.204   -31.604
2451.46     87.224   -32.513
2487.12     87.252   -33.507
2523.30     87.276   -34.586
2560.00     87.294   -35.726
2597.24     87.305   -36.907
2635.01     87.310   -38.121
2673.34     87.312   -39.374
2712.23     87.308   -40.683
2751.68     87.297   -42.065
2791.70     87.264   -43.509
2832.31     87.205   -44.958
2873.50     87.120   -46.350
2915.30     87.010   -47.611
2957.70     86.890   -48.697
3000.72     86.773   -49.619
3044.37     86.666   -50.408
3088.65     86.575   -51.102
3133.58     86.499   -51.742
3179.16     86.437   -52.350
3225.40     86.387   -52.927
3272.31     86.355   -53.492
3319.91     86.339   -54.068
3368.20     86.342   -54.680
3417.19     86.364   -55.378
3466.89     86.394   -56.192
3517.32     86.424   -57.108
3568.48     86.447   -58.090
3620.39     86.458   -59.054
3673.05     86.476   -59.919
3726.47     86.534   -60.720
3780.67     86.657   -61.634
3835.67     86.836   -62.907
3891.46     87.034   -64.725
3948.06     87.200   -67.134
4005.49     87.275   -69.950
4063.75     87.254   -72.836
4122.86     87.168   -75.543
4182.82     87.051   -77.964
4243.66     86.966   -80.208
4305.39     86.925   -82.571
4368.01     86.895   -85.283
4431.55     86.834   -88.435
4496.01     86.671   -91.869
4561.40     86.374   -95.146
4627.75     85.982   -97.859
4695.06     85.558   -99.862
4763.35     85.177  -101.261
4832.64     84.910  -102.410
4902.93     84.767  -103.809
4974.24     84.683  -105.820
5046.60     84.587  -108.543
5120.00     84.416  -111.893
5194.47     84.126  -115.642
5270.03     83.685  -119.448
5346.68     83.079  -122.867
5424.45     82.328  -125.460
5503.35     81.490  -126.943
5583.40     80.646  -127.287
5664.61     79.896  -126.767
5747.01     79.292  -125.843
5830.60     78.837  -124.982
5915.41     78.473  -124.504
6001.45     78.129  -124.477
6088.74     77.756  -124.812
6177.30     77.314  -125.318
6267.15     76.787  -125.742
6358.31     76.177  -125.831
6450.80     75.488  -125.332
6544.62     74.746  -124.021
6639.82     73.990  -121.756
6736.40     73.278  -118.495
6834.38     72.671  -114.320
6933.79     72.240  -109.462
7034.64     72.031  -104.290
7136.96     72.072   -99.289
7240.77     72.315   -94.932
7346.09     72.692   -91.490
7452.94     73.159   -89.164
7561.35     73.639   -88.064
7671.33     74.071   -88.127
7782.91     74.400   -89.243
7896.12     74.560   -91.179
8010.97     74.467   -93.322
8127.49     74.115   -94.758
8245.71     73.576   -94.659
8365.65     72.994   -92.624
8487.33     72.566   -88.840
8610.78     72.490   -84.089
8736.03     72.801   -79.435
8863.09     73.401   -75.756
8992.01     74.156   -73.580
9122.80     74.928   -73.105
9255.50     75.586   -74.090
9390.12     76.093   -76.063
9526.70     76.425   -78.540
9665.27     76.593   -80.962
9805.86     76.660   -82.921
9948.49     76.701   -84.307
10093.2     76.777   -85.264
10240.0     76.911   -86.073
10388.9     77.080   -86.952
10540.1     77.256   -87.962
10693.4     77.418   -89.047
10848.9     77.558   -90.061
11006.7     77.692   -90.845
11166.8     77.847   -91.262
11329.2     78.082   -91.243
11494.0     78.493   -90.887
11661.2     79.198   -90.652
11830.8     80.224   -91.431
12002.9     81.437   -94.255
12177.5     82.592   -99.830
12354.6     83.470  -108.167
12534.3     83.952  -118.498
12716.6     83.990  -129.541
12901.6     83.612  -139.965
13089.2     82.927  -148.879
13279.6     82.050  -155.938
13472.8     81.098  -161.136
13668.8     80.188  -164.730
13867.6     79.411  -167.206
14069.3     78.815  -169.133
14273.9     78.413  -171.090
14481.5     78.164  -173.602
14692.2     77.966  -176.947
14905.9     77.726   178.922
15122.7     77.385   174.268
15342.7     76.908   169.456
15565.8     76.299   164.849
15792.2     75.585   160.697
16021.9     74.799   157.120
16255.0     73.978   154.138
16491.4     73.160   151.670
16731.3     72.357   149.592
16974.7     71.584   147.760
17221.6     70.844   145.964
17472.1     70.099   144.076
17726.2     69.310   142.168
17984.0     68.405   140.631
18245.6     67.359   140.164
18511.0     66.259   141.205
18780.2     65.221   143.634
19053.4     64.394   146.961
19330.5     63.909   150.307
19611.7     63.676   152.828
19897.0     63.540   154.279
20186.4     63.391   154.843
20480.0     63.171   154.884
20777.9     62.885   154.766
21080.1     62.573   154.643
21386.7     62.247   154.539
21697.8     61.921   154.441
22013.4     61.595   154.326
22333.6     61.270   154.192
22658.4     60.944   154.038
22988.0     60.618   153.864
23322.4     60.292   153.674
23661.6     59.966   153.469
24005.8     59.641   153.251
24355.0     59.315   153.021
24709.2     58.989   152.782
25068.6     58.663   152.534
25433.2     58.337   152.280
25803.2     58.012   152.019
26178.5     57.686   151.754
26559.3     57.360   151.484
26945.6     57.034   151.211
27337.5     56.708   150.934
27735.2     56.382   150.656
28138.6     56.057   150.376
28547.9     55.731   150.095
28963.1     55.405   149.813
29384.4     55.079   149.531
29811.8     54.753   149.249
30245.4     54.428   148.967
30685.3     54.102   148.686
31131.7     53.776   148.406
31584.5     53.450   148.126
32043.9     53.124   147.848
32510.0     52.799   147.571
32982.8     52.473   147.295
33462.6     52.147   147.022
33949.3     51.821   146.749
34443.1     51.495   146.479
34944.1     51.170   146.210
35452.4     50.844   145.943
35968.0     50.518   145.679
36491.2     50.192   145.415
37022.0     49.866   145.153
37560.5     49.541   144.887
38106.8     49.245   144.645
38661.1     48.976   144.411
39223.4     48.774   144.232
39793.9     48.619   144.093
