Freq[Hz]     dBSPL  Phase[Deg]
5.00000     35.571   168.812
5.07273     35.688   168.738
5.14651     35.840   168.644
5.22137     36.042   168.524
5.29732     36.266   168.403
5.37437     36.512   168.271
5.45254     36.758   168.142
5.53185     37.005   168.012
5.61231     37.251   167.881
5.69394     37.497   167.748
5.77676     37.743   167.614
5.86079     37.990   167.478
5.94604     38.236   167.340
6.03252     38.482   167.201
6.12027     38.728   167.059
6.20929     38.975   166.916
6.29961     39.221   166.771
6.39124     39.467   166.624
6.48420     39.713   166.474
6.57851     39.960   166.323
6.67420     40.206   166.170
6.77128     40.452   166.015
6.86977     40.699   165.857
6.96969     40.945   165.698
7.07107     41.191   165.535
7.17392     41.437   165.371
7.27827     41.684   165.204
7.38413     41.930   165.035
7.49154     42.176   164.864
7.60050     42.422   164.690
7.71105     42.669   164.514
7.82321     42.915   164.335
7.93701     43.161   164.153
8.05245     43.407   163.969
8.16958     43.654   163.782
8.28841     43.900   163.593
8.40896     44.146   163.400
8.53128     44.392   163.205
8.65537     44.639   163.007
8.78126     44.885   162.806
8.90899     45.131   162.602
9.03857     45.377   162.395
9.17004     45.624   162.185
9.30342     45.870   161.972
9.43874     46.116   161.756
9.57603     46.362   161.536
9.71532     46.609   161.314
9.85663     46.855   161.088
10.0000     47.101   160.858
10.1455     47.347   160.625
10.2930     47.594   160.389
10.4427     47.840   160.149
10.5946     48.086   159.905
10.7487     48.332   159.658
10.9051     48.579   159.406
11.0637     48.825   159.152
11.2246     49.071   158.893
11.3879     49.318   158.630
11.5535     49.564   158.363
11.7216     49.810   158.092
11.8921     50.056   157.817
12.0650     50.303   157.538
12.2405     50.549   157.254
12.4186     50.795   156.966
12.5992     51.041   156.674
12.7825     51.288   156.377
12.9684     51.534   156.075
13.1570     51.780   155.769
13.3484     52.026   155.458
13.5426     52.273   155.142
13.7395     52.519   154.821
13.9394     52.765   154.495
14.1421     53.011   154.164
14.3478     53.258   153.828
14.5565     53.504   153.487
14.7683     53.750   153.140
14.9831     53.996   152.787
15.2010     54.243   152.429
15.4221     54.489   152.066
15.6464     54.735   151.697
15.8740     54.981   151.323
16.1049     55.228   150.942
16.3392     55.474   150.556
16.5768     55.720   150.164
16.8179     55.966   149.767
17.0626     56.213   149.363
17.3107     56.459   148.955
17.5625     56.705   148.540
17.8180     56.951   148.121
18.0771     57.198   147.697
18.3401     57.444   147.269
18.6068     57.690   146.839
18.8775     57.937   146.408
19.1521     58.183   145.982
19.4306     58.431   145.562
19.7133     58.683   145.151
20.0000     58.942   144.736
20.2909     59.206   144.299
20.5860     59.475   143.832
20.8855     59.752   143.316
21.1893     60.031   142.728
21.4975     60.307   142.064
21.8102     60.577   141.329
22.1274     60.836   140.530
22.4492     61.074   139.712
22.7758     61.293   138.949
23.1071     61.506   138.281
23.4432     61.717   137.733
23.7841     61.942   137.307
24.1301     62.191   136.953
24.4811     62.466   136.606
24.8372     62.768   136.212
25.1984     63.094   135.720
25.5649     63.437   135.102
25.9368     63.803   134.313
26.3141     64.182   133.300
26.6968     64.568   132.019
27.0851     64.951   130.414
27.4791     65.303   128.477
27.8788     65.613   126.269
28.2843     65.868   123.866
28.6957     66.063   121.372
29.1131     66.199   118.894
29.5365     66.283   116.515
29.9661     66.319   114.303
30.4020     66.318   112.315
30.8442     66.292   110.575
31.2929     66.248   109.090
31.7480     66.200   107.846
32.2098     66.147   106.813
32.6783     66.086   106.016
33.1536     66.033   105.474
33.6359     65.991   105.179
34.1251     65.974   105.114
34.6215     65.997   105.210
35.1250     66.062   105.376
35.6359     66.165   105.538
36.1543     66.301   105.633
36.6802     66.466   105.603
37.2137     66.645   105.416
37.7550     66.834   105.056
38.3041     67.021   104.506
38.8613     67.193   103.778
39.4265     67.339   102.912
40.0000     67.449   101.977
40.5818     67.522   101.060
41.1721     67.559   100.231
41.7710     67.556    99.592
42.3785     67.532    99.230
42.9949     67.496    99.189
43.6203     67.462    99.528
44.2548     67.461   100.248
44.8985     67.515   101.272
45.5515     67.643   102.476
46.2141     67.854   103.688
46.8863     68.131   104.762
47.5683     68.467   105.591
48.2602     68.835   106.111
48.9621     69.223   106.326
49.6743     69.625   106.234
50.3968     70.030   105.837
51.1299     70.431   105.138
51.8736     70.819   104.144
52.6281     71.184   102.878
53.3936     71.516   101.375
54.1702     71.805    99.712
54.9581     72.055    97.971
55.7575     72.268    96.211
56.5685     72.450    94.478
57.3914     72.606    92.801
58.2261     72.745    91.180
59.0730     72.860    89.625
59.9323     72.958    88.169
60.8040     73.047    86.816
61.6884     73.126    85.574
62.5857     73.207    84.444
63.4960     73.299    83.371
64.4196     73.393    82.315
65.3566     73.491    81.247
66.3073     73.583    80.148
67.2717     73.659    79.053
68.2502     73.723    77.997
69.2429     73.773    77.010
70.2501     73.810    76.146
71.2719     73.851    75.420
72.3086     73.896    74.814
73.3603     73.952    74.325
74.4274     74.031    73.918
75.5099     74.130    73.541
76.6083     74.253    73.138
77.7226     74.391    72.658
78.8531     74.533    72.101
80.0000     74.676    71.481
81.1636     74.817    70.817
82.3442     74.956    70.142
83.5419     75.100    69.457
84.7570     75.248    68.750
85.9899     75.400    68.023
87.2406     75.560    67.256
88.5096     75.721    66.445
89.7970     75.888    65.599
91.1031     76.062    64.704
92.4282     76.243    63.741
93.7726     76.433    62.687
95.1366     76.629    61.515
96.5204     76.829    60.192
97.9243     77.025    58.691
99.3486     77.209    57.008
100.794     77.376    55.136
102.260     77.507    53.113
103.747     77.603    51.011
105.256     77.666    48.872
106.787     77.693    46.733
108.340     77.693    44.616
109.916     77.661    42.516
111.515     77.588    40.474
113.137     77.471    38.570
114.783     77.309    36.906
116.452     77.115    35.580
118.146     76.912    34.644
119.865     76.724    34.066
121.608     76.562    33.789
123.377     76.442    33.731
125.171     76.366    33.797
126.992     76.332    33.909
128.839     76.339    33.994
130.713     76.378    33.997
132.615     76.444    33.873
134.543     76.525    33.597
136.500     76.609    33.188
138.486     76.700    32.657
140.500     76.791    32.002
142.544     76.883    31.222
144.617     76.969    30.319
146.721     77.051    29.283
148.855     77.117    28.107
151.020     77.159    26.824
153.217     77.173    25.485
155.445     77.161    24.133
157.706     77.119    22.809
160.000     77.051    21.563
162.327     76.962    20.426
164.688     76.860    19.407
167.084     76.745    18.514
169.514     76.623    17.755
171.980     76.495    17.128
174.481     76.361    16.650
177.019     76.227    16.343
179.594     76.104    16.195
182.206     75.993    16.177
184.856     75.895    16.279
187.545     75.819    16.479
190.273     75.760    16.755
193.041     75.721    17.114
195.849     75.709    17.545
198.697     75.737    17.995
201.587     75.807    18.363
204.520     75.907    18.582
207.494     76.037    18.586
210.512     76.175    18.313
213.574     76.300    17.799
216.681     76.412    17.088
219.833     76.499    16.208
223.030     76.554    15.240
226.274     76.586    14.232
229.565     76.588    13.223
232.905     76.566    12.270
236.292     76.527    11.402
239.729     76.475    10.644
243.216     76.419    10.007
246.754     76.369     9.476
250.343     76.333     9.013
253.984     76.320     8.543
257.678     76.323     7.980
261.426     76.337     7.247
265.229     76.343     6.289
269.087     76.318     5.108
273.001     76.233     3.803
276.972     76.079     2.548
281.000     75.857     1.519
285.088     75.573     0.908
289.234     75.264     0.848
293.441     74.967     1.350
297.709     74.717     2.331
302.040     74.543     3.623
306.433     74.451     5.028
310.890     74.433     6.373
315.412     74.465     7.543
320.000     74.525     8.509
324.655     74.595     9.299
329.377     74.667     9.980
334.168     74.744    10.613
339.028     74.835    11.226
343.959     74.950    11.798
348.962     75.095    12.274
354.038     75.273    12.565
359.188     75.471    12.574
364.412     75.665    12.284
369.713     75.849    11.697
375.090     76.002    10.840
380.546     76.113     9.811
386.081     76.187     8.681
391.697     76.221     7.491
397.394     76.210     6.302
403.175     76.152     5.197
409.039     76.055     4.259
414.989     75.922     3.561
421.025     75.768     3.172
427.149     75.616     3.101
433.362     75.483     3.290
439.665     75.371     3.677
446.060     75.285     4.205
452.548     75.217     4.846
459.131     75.161     5.633
465.809     75.126     6.612
472.584     75.126     7.820
479.458     75.192     9.236
486.432     75.363    10.691
493.507     75.644    11.919
500.686     76.024    12.620
507.968     76.452    12.527
515.357     76.852    11.565
522.853     77.167     9.884
530.458     77.370     7.765
538.174     77.451     5.546
546.002     77.427     3.552
553.943     77.348     1.942
562.001     77.242     0.727
570.175     77.137    -0.131
578.469     77.059    -0.758
586.883     76.997    -1.269
595.419     76.947    -1.706
604.080     76.910    -2.109
612.866     76.868    -2.466
621.780     76.829    -2.727
630.824     76.802    -2.901
640.000     76.785    -2.989
649.309     76.795    -3.009
658.753     76.837    -3.041
668.335     76.907    -3.158
678.056     76.999    -3.418
687.919     77.103    -3.866
697.925     77.204    -4.501
708.077     77.298    -5.295
718.376     77.386    -6.248
728.825     77.458    -7.360
739.426     77.510    -8.615
750.181     77.539   -10.019
761.093     77.524   -11.538
772.163     77.458   -13.068
783.394     77.342   -14.499
794.789     77.179   -15.729
806.349     76.981   -16.662
818.078     76.769   -17.250
829.977     76.565   -17.512
842.050     76.380   -17.495
854.298     76.225   -17.250
866.724     76.108   -16.846
879.330     76.030   -16.344
892.120     75.998   -15.812
905.097     76.015   -15.356
918.262     76.068   -15.066
931.618     76.148   -15.020
945.169     76.228   -15.248
958.917     76.290   -15.697
972.864     76.322   -16.270
987.015     76.325   -16.860
1001.37     76.311   -17.399
1015.94     76.291   -17.872
1030.71     76.275   -18.298
1045.71     76.268   -18.732
1060.92     76.262   -19.219
1076.35     76.253   -19.772
1092.00     76.227   -20.377
1107.89     76.179   -20.971
1124.00     76.111   -21.487
1140.35     76.026   -21.854
1156.94     75.943   -22.038
1173.77     75.881   -22.076
1190.84     75.849   -22.059
1208.16     75.843   -22.084
1225.73     75.850   -22.208
1243.56     75.853   -22.419
1261.65     75.846   -22.658
1280.00     75.832   -22.865
1298.62     75.818   -23.006
1317.51     75.818   -23.093
1336.67     75.838   -23.184
1356.11     75.865   -23.303
1375.84     75.907   -23.460
1395.85     75.956   -23.672
1416.15     76.011   -23.919
1436.75     76.086   -24.230
1457.65     76.172   -24.654
1478.85     76.267   -25.220
1500.36     76.361   -25.951
1522.19     76.446   -26.835
1544.33     76.517   -27.849
1566.79     76.566   -28.947
1589.58     76.598   -30.079
1612.70     76.617   -31.231
1636.16     76.624   -32.385
1659.95     76.627   -33.542
1684.10     76.627   -34.723
1708.60     76.627   -35.957
1733.45     76.624   -37.283
1758.66     76.612   -38.729
1784.24     76.580   -40.306
1810.19     76.515   -41.969
1836.52     76.414   -43.655
1863.24     76.275   -45.305
1890.34     76.100   -46.850
1917.83     75.903   -48.264
1945.73     75.685   -49.556
1974.03     75.446   -50.716
2002.74     75.189   -51.749
2031.87     74.901   -52.624
2061.43     74.585   -53.264
2091.41     74.244   -53.625
2121.83     73.870   -53.615
2152.69     73.470   -53.089
2184.01     73.064   -51.908
2215.77     72.676   -49.942
2248.00     72.366   -47.124
2280.70     72.207   -43.562
2313.87     72.273   -39.565
2347.53     72.604   -35.589
2381.68     73.190   -32.110
2416.32     74.003   -29.571
2451.46     74.982   -28.325
2487.12     76.085   -28.613
2523.30     77.277   -30.713
2560.00     78.499   -34.994
2597.24     79.631   -41.814
2635.01     80.538   -51.336
2673.34     81.063   -63.283
2712.23     81.124   -76.860
2751.68     80.694   -91.081
2791.70     79.699  -104.662
2832.31     78.149  -116.094
2873.50     76.143  -124.177
2915.30     73.709  -128.127
2957.70     70.981  -127.655
3000.72     68.192  -123.014
3044.37     65.607  -114.829
3088.65     63.540  -104.080
3133.58     62.053   -91.786
3179.16     61.211   -78.834
3225.40     60.977   -66.148
3272.31     61.249   -54.547
3319.91     61.852   -44.541
3368.20     62.633   -36.282
3417.19     63.486   -29.642
3466.89     64.371   -24.405
3517.32     65.247   -20.358
3568.48     66.102   -17.294
3620.39     66.924   -15.056
3673.05     67.706   -13.484
3726.47     68.452   -12.426
3780.67     69.181   -11.798
3835.67     69.886   -11.550
3891.46     70.584   -11.683
3948.06     71.256   -12.241
4005.49     71.869   -13.101
4063.75     72.451   -14.102
4122.86     73.019   -15.142
4182.82     73.609   -16.132
4243.66     74.281   -17.163
4305.39     75.059   -18.514
4368.01     75.955   -20.582
4431.55     76.914   -23.809
4496.01     77.862   -28.528
4561.40     78.688   -34.872
4627.75     79.297   -42.645
4695.06     79.633   -51.359
4763.35     79.665   -60.322
4832.64     79.412   -68.804
4902.93     78.935   -76.270
4974.24     78.309   -82.471
5046.60     77.614   -87.407
5120.00     76.922   -91.280
5194.47     76.276   -94.405
5270.03     75.662   -96.998
5346.68     75.078   -99.136
5424.45     74.507  -100.826
5503.35     73.940  -101.960
5583.40     73.419  -102.492
5664.61     72.983  -102.531
5747.01     72.671  -102.285
5830.60     72.506  -102.056
5915.41     72.476  -102.170
6001.45     72.551  -102.903
6088.74     72.686  -104.465
6177.30     72.820  -106.967
6267.15     72.895  -110.378
6358.31     72.854  -114.519
6450.80     72.654  -119.033
6544.62     72.286  -123.488
6639.82     71.765  -127.490
6736.40     71.128  -130.733
6834.38     70.438  -133.086
6933.79     69.755  -134.590
7034.64     69.143  -135.438
7136.96     68.636  -135.949
7240.77     68.242  -136.430
7346.09     67.955  -137.193
7452.94     67.732  -138.478
7561.35     67.525  -140.385
7671.33     67.289  -142.913
7782.91     66.984  -145.959
7896.12     66.588  -149.378
8010.97     66.073  -152.972
8127.49     65.429  -156.487
8245.71     64.665  -159.710
8365.65     63.776  -162.418
8487.33     62.783  -164.390
8610.78     61.723  -165.497
8736.03     60.621  -165.679
8863.09     59.524  -164.945
8992.01     58.471  -163.409
9122.80     57.499  -161.263
9255.50     56.623  -158.721
9390.12     55.848  -156.004
9526.70     55.154  -153.304
9665.27     54.502  -150.688
9805.86     53.861  -148.101
9948.49     53.198  -145.371
10093.2     52.498  -142.213
10240.0     51.796  -138.389
10388.9     51.154  -133.873
10540.1     50.639  -128.877
10693.4     50.287  -123.742
10848.9     50.098  -118.829
11006.7     50.024  -114.410
11166.8     50.002  -110.543
11329.2     50.000  -107.144
11494.0     50.000  -104.105
11661.2     50.000  -101.335
11830.8     50.000   -98.777
12002.9     50.000   -96.397
12177.5     50.000   -94.168
12354.6     50.000   -92.070
12534.3     50.000   -90.089
12716.6     50.000   -88.212
12901.6     50.000   -86.428
13089.2     50.000   -84.730
13279.6     50.000   -83.109
13472.8     50.000   -81.560
13668.8     50.000   -80.078
13867.6     50.000   -78.657
14069.3     50.000   -77.293
14273.9     50.000   -75.983
14481.5     50.000   -74.724
14692.2     50.000   -73.513
14905.9     50.000   -72.347
15122.7     50.000   -71.223
15342.7     50.000   -70.141
15565.8     50.000   -69.098
15792.2     50.000   -68.093
16021.9     50.000   -67.124
16255.0     50.000   -66.190
16491.4     50.000   -65.290
16731.3     50.000   -64.423
16974.7     50.000   -63.589
17221.6     50.000   -62.787
17472.1     50.000   -62.017
17726.2     50.000   -61.280
17984.0     50.000   -60.576
18245.6     50.000   -59.908
18511.0     49.999   -59.280
18780.2     49.997   -58.695
19053.4     49.991   -58.150
19330.5     49.979   -57.634
19611.7     49.962   -57.136
19897.0     49.939   -56.644
20186.4     49.912   -56.146
20480.0     49.884   -55.642
20777.9     49.855   -55.135
21080.1     49.826   -54.627
21386.7     49.797   -54.122
21697.8     49.768   -53.622
22013.4     49.739   -53.128
22333.6     49.710   -52.639
22658.4     49.681   -52.157
22988.0     49.652   -51.682
23322.4     49.623   -51.214
23661.6     49.594   -50.753
24005.8     49.565   -50.298
24355.0     49.535   -49.851
24709.2     49.506   -49.411
25068.6     49.477   -48.977
25433.2     49.448   -48.551
25803.2     49.419   -48.131
26178.5     49.390   -47.718
26559.3     49.361   -47.312
26945.6     49.332   -46.912
27337.5     49.303   -46.519
27735.2     49.274   -46.132
28138.6     49.245   -45.751
28547.9     49.216   -45.377
28963.1     49.187   -45.008
29384.4     49.158   -44.646
29811.8     49.129   -44.289
30245.4     49.100   -43.938
30685.3     49.071   -43.593
31131.7     49.042   -43.253
31584.5     49.013   -42.919
32043.9     48.984   -42.590
32510.0     48.955   -42.266
32982.8     48.926   -41.947
33462.6     48.897   -41.634
33949.3     48.868   -41.325
34443.1     48.838   -41.021
34944.1     48.809   -40.723
35452.4     48.780   -40.429
35968.0     48.751   -40.139
36491.2     48.722   -39.854
37022.0     48.693   -39.574
37560.5     48.664   -39.299
38106.8     48.638   -39.053
38661.1     48.614   -38.836
39223.4     48.597   -38.676
39793.9     48.583   -38.554
