* Measurement data measured by REW V5.31.3
* Source: Microphone (Conexant ISST Audio), MICROPHONE (Master Volume), R, volume: 0.500
* Format: 256k Log Swept Sine, 1 sweep at 0.0 dBFS with no timing reference
* Dated: Aug 8, 2025 2:09:48 PM
* REW Settings:
*  C-weighting compensation: Off
*  Target level: 75.0 dB
* Note: 
* Measurement: L Tweeter Only 2 Aug 8
* Smoothing: 1/12 octave
* Frequency Step: 96 ppo
* Start Frequency: 20.141602 Hz
*
* Freq(Hz) SPL(dB) Phase(degrees)
20.141602 47.256 127.1082
20.287556 47.116 128.2043
20.434568 46.884 129.7126
20.582645 46.552 131.2952
20.731796 46.112 132.5637
20.882027 45.569 133.0492
21.033346 44.949 132.1308
21.185763 44.327 128.9404
21.339284 43.847 122.3772
21.493917 43.711 111.7160
21.649671 44.088 98.2612
21.806553 44.967 85.7946
21.964572 46.176 77.2523
22.123737 47.517 72.8422
22.284054 48.857 71.5546
22.445534 50.120 72.4059
22.608183 51.279 74.7070
22.772012 52.324 78.0131
22.937027 53.257 82.0366
23.103238 54.083 86.5878
23.270654 54.807 91.5378
23.439282 55.434 96.7952
23.609133 55.969 102.2934
23.780215 56.417 107.9820
23.952536 56.781 113.8210
24.126106 57.064 119.7776
24.300934 57.268 125.8232
24.477028 57.395 131.9321
24.654399 57.443 138.0788
24.833055 57.411 144.2377
25.013005 57.297 150.3802
25.194260 57.096 156.4741
25.376828 56.804 162.4793
25.560719 56.415 168.3468
25.745942 55.922 174.0102
25.932508 55.319 179.3802
26.120426 54.597 -175.6712
26.309705 53.750 -171.3318
26.500356 52.776 -167.8885
26.692388 51.680 -165.7914
26.885812 50.490 -165.7523
27.080638 49.282 -168.8335
27.276876 48.209 -176.2285
27.474535 47.496 172.0695
27.673627 47.329 159.2009
27.874161 47.688 149.4591
28.076149 48.367 144.2595
28.279600 49.143 142.7218
28.484526 49.871 143.6339
28.690937 50.480 146.0987
28.898843 50.944 149.5285
29.108256 51.254 153.5345
29.319186 51.411 157.8449
29.531645 51.418 162.2503
29.745644 51.278 166.5694
29.961193 50.994 170.6260
30.178304 50.573 174.2276
30.396989 50.021 177.1496
30.617258 49.354 179.1187
30.839123 48.599 179.8093
31.062596 47.808 178.8754
31.287688 47.062 176.0667
31.514412 46.471 171.4664
31.742778 46.139 165.7393
31.972800 46.112 160.0424
32.204488 46.348 155.4671
32.437855 46.742 152.5503
32.672913 47.185 151.2745
32.909674 47.593 151.3353
33.148151 47.917 152.3549
33.388356 48.130 153.9758
33.630302 48.218 155.8793
33.874001 48.181 157.7743
34.119466 48.025 159.3810
34.366710 47.765 160.4178
34.615745 47.432 160.6028
34.866585 47.074 159.6884
35.119243 46.761 157.5464
35.373731 46.573 154.3022
35.630064 46.578 150.4315
35.888254 46.792 146.6723
36.148315 47.178 143.7327
36.410261 47.658 142.0188
36.674104 48.149 141.5821
36.939860 48.585 142.2335
37.207542 48.922 143.6702
37.477163 49.137 145.5532
37.748738 49.220 147.5374
38.022281 49.178 149.2780
38.297806 49.036 150.4426
38.575327 48.839 150.7492
38.854860 48.653 150.0482
39.136419 48.557 148.4413
39.420017 48.611 146.3552
39.705671 48.827 144.4362
39.993395 49.158 143.2734
40.283203 49.523 143.1559
40.575112 49.838 144.0212
40.869136 50.041 145.5376
41.165290 50.100 147.1934
41.463591 50.022 148.3337
41.764053 49.862 148.1730
42.066693 49.740 145.9054
42.371525 49.826 141.1553
42.678567 50.257 134.7853
42.987834 51.027 128.9746
43.299341 51.991 125.6586
43.613106 52.970 125.3121
43.929145 53.831 127.3663
44.247473 54.505 130.9491
44.568109 54.973 135.1893
44.891068 55.262 139.2209
45.216367 55.455 142.0908
45.544023 55.708 142.7242
45.874054 56.229 140.2491
46.206476 57.160 135.1009
46.541307 58.466 129.9293
46.878565 59.963 127.7665
47.218266 61.467 129.6101
47.560429 62.857 134.8597
47.905072 64.073 142.5842
48.252212 65.092 152.0328
48.601867 65.905 162.6822
48.954056 66.514 174.1753
49.308798 66.920 -173.7392
49.666109 67.128 -161.2493
50.026010 67.138 -148.5082
50.388520 66.952 -135.6541
50.753656 66.568 -122.8287
51.121437 65.982 -110.1928
51.491884 65.191 -97.9511
51.865016 64.189 -86.3838
52.240851 62.977 -75.8976
52.619410 61.560 -67.0979
53.000712 59.956 -60.8581
53.384777 58.216 -58.2184
53.771625 56.427 -59.6306
54.161276 54.720 -63.4340
54.553751 53.226 -66.1271
54.949070 51.990 -65.5796
55.347254 50.936 -62.1315
55.748323 49.928 -57.1900
56.152298 48.862 -52.3192
56.559201 47.717 -49.0383
56.969052 46.576 -48.4568
57.381873 45.604 -50.0700
57.797686 44.956 -50.9231
58.216512 44.645 -47.8558
58.638373 44.531 -39.8827
59.063291 44.440 -27.4091
59.491288 44.250 -10.8733
59.922386 43.907 9.7109
60.356608 43.395 34.4988
60.793977 42.716 62.7493
61.234515 41.877 91.5484
61.678246 40.889 116.7734
62.125192 39.771 135.1040
62.575377 38.564 141.7946
63.028824 37.353 122.5138
63.485557 36.269 86.5854
63.945599 35.479 76.1718
64.408975 35.117 77.3036
64.875709 35.217 81.3251
65.345825 35.696 86.0277
65.819348 36.391 91.0381
66.296302 37.129 96.4790
66.776713 37.767 102.4561
67.260604 38.212 108.8832
67.748002 38.408 115.4866
68.238932 38.329 121.8586
68.733420 37.975 127.4874
69.231490 37.365 131.7512
69.733170 36.548 133.9077
70.238485 35.617 133.1718
70.747463 34.723 129.0897
71.260128 34.055 122.2607
71.776508 33.759 114.4471
72.296630 33.858 107.0229
72.820521 34.300 99.4723
73.348209 35.044 89.7202
73.879720 36.071 76.4410
74.415083 37.312 62.8528
74.954326 38.627 54.4131
75.497475 39.859 52.2318
76.044561 40.888 54.4125
76.595612 41.644 58.9854
77.150655 42.104 64.5112
77.709720 42.282 69.9293
78.272837 42.232 74.4283
78.840034 42.054 77.4767
79.411342 41.875 79.0080
79.986789 41.801 79.5523
80.566406 41.851 79.9673
81.150224 41.952 80.8306
81.738272 42.006 82.0778
82.330581 41.962 83.1411
82.927182 41.845 83.3477
83.528107 41.738 82.3848
84.133386 41.731 80.6412
84.743051 41.845 79.0193
85.357134 42.013 78.2119
85.975667 42.144 78.2253
86.598682 42.184 78.5486
87.226212 42.145 78.6005
87.858289 42.078 78.0895
88.494946 42.038 77.1298
89.136217 42.039 76.0325
89.782135 42.056 74.9509
90.432733 42.068 73.7341
91.088046 42.083 72.1046
91.748108 42.140 69.9575
92.412952 42.273 67.5044
93.082615 42.487 65.1207
93.757130 42.759 63.0708
94.436533 43.063 61.4060
95.120859 43.384 60.0674
95.810144 43.716 59.0018
96.504423 44.054 58.1809
97.203734 44.395 57.5818
97.908112 44.740 57.2119
98.617595 45.081 57.1523
99.332219 45.395 57.5259
100.052021 45.644 58.3682
100.777039 45.784 59.5050
101.507311 45.792 60.5423
102.242875 45.683 60.9780
102.983769 45.512 60.3859
103.730032 45.359 58.6063
104.481702 45.307 55.8447
105.238820 45.406 52.5890
106.001424 45.659 49.4099
106.769554 46.034 46.7919
107.543250 46.470 45.0311
108.322553 46.903 44.1693
109.107503 47.286 43.9976
109.898141 47.601 44.1606
110.694508 47.860 44.3228
111.496646 48.099 44.3138
112.304596 48.345 44.1814
113.118402 48.610 44.1165
113.938104 48.875 44.3049
114.763747 49.113 44.8087
115.595372 49.296 45.5309
116.433024 49.412 46.2574
117.276746 49.471 46.7485
118.126581 49.500 46.8507
118.982575 49.531 46.5663
119.844772 49.580 46.0051
120.713217 49.652 45.2524
121.587954 49.747 44.3077
122.469031 49.874 43.1824
123.356492 50.039 42.0208
124.250384 50.230 41.0433
125.150753 50.417 40.3418
126.057647 50.578 39.7839
126.971113 50.714 39.1413
127.891198 50.848 38.2854
128.817950 51.001 37.2562
129.751418 51.183 36.1759
130.691651 51.389 35.1461
131.638696 51.608 34.2249
132.592604 51.828 33.4259
133.553425 52.035 32.6740
134.521208 52.231 31.7886
135.496004 52.443 30.6010
136.477864 52.708 29.1173
137.466839 53.060 27.4943
138.462981 53.523 25.8292
139.466340 54.130 24.0814
140.476971 54.922 22.1949
141.494925 55.929 20.1891
142.520256 57.146 18.2467
143.553016 58.522 16.8658
144.593260 59.965 16.7294
145.641043 61.366 18.3516
146.696418 62.617 22.0360
147.759441 63.614 27.9292
148.830166 64.258 35.7686
149.908651 64.479 44.6799
150.994951 64.249 53.3411
152.089123 63.595 60.3839
153.191223 62.592 64.8686
154.301310 61.343 66.5948
155.419441 59.972 65.9657
156.545674 58.607 63.6583
157.680069 57.381 60.4840
158.822683 56.396 57.1372
159.973578 55.698 53.9538
161.132813 55.276 51.0359
162.300447 55.077 48.3978
163.476543 55.044 46.0126
164.661162 55.127 43.9006
165.854364 55.285 42.1256
167.056213 55.484 40.7076
168.266772 55.699 39.6154
169.486102 55.910 38.7939
170.714268 56.105 38.1552
171.951334 56.282 37.5854
173.197364 56.445 36.9916
174.452424 56.603 36.3367
175.716578 56.766 35.6564
176.989893 56.934 35.0365
178.272434 57.098 34.5303
179.564270 57.251 34.1055
180.865467 57.391 33.6853
182.176092 57.527 33.2145
183.496216 57.664 32.6933
184.825905 57.808 32.1645
186.165229 57.957 31.6620
187.514259 58.107 31.1775
188.873065 58.261 30.6854
190.241717 58.420 30.1820
191.620287 58.585 29.6914
193.008847 58.753 29.2405
194.407468 58.919 28.8293
195.816225 59.081 28.4332
197.235190 59.241 28.0342
198.664438 59.402 27.6355
200.104042 59.566 27.2505
201.554078 59.733 26.8922
203.014622 59.903 26.5742
204.485750 60.073 26.3123
205.967538 60.240 26.1059
207.460064 60.400 25.9227
208.963405 60.554 25.7280
210.477640 60.704 25.5186
212.002848 60.851 25.3004
213.539108 60.994 25.0597
215.086500 61.137 24.7753
216.645105 61.286 24.4479
218.215005 61.444 24.1052
219.796281 61.611 23.7819
221.389015 61.783 23.4983
222.993292 61.957 23.2546
224.609193 62.132 23.0438
226.236804 62.305 22.8659
227.876209 62.476 22.7242
229.527494 62.647 22.6165
231.190745 62.818 22.5443
232.866048 62.994 22.5286
234.553491 63.179 22.6151
236.253163 63.371 22.8616
237.965150 63.566 23.3142
239.689544 63.756 23.9795
241.426433 63.931 24.7977
243.175909 64.081 25.6270
244.938062 64.191 26.2114
246.712984 64.244 26.1307
248.500768 64.236 24.8598
250.301507 64.192 22.2073
252.115295 64.157 18.9438
253.942226 64.161 16.2616
255.782396 64.209 14.6492
257.635901 64.290 13.9195
259.502837 64.393 13.7087
261.383301 64.507 13.7280
263.277392 64.626 13.8066
265.185209 64.750 13.8667
267.106850 64.875 13.8904
269.042417 65.001 13.8875
270.992009 65.126 13.8678
272.955729 65.248 13.8368
274.933678 65.366 13.7952
276.925961 65.481 13.7398
278.932681 65.593 13.6662
280.953942 65.703 13.5745
282.989850 65.813 13.4703
285.040511 65.923 13.3579
287.106032 66.035 13.2391
289.186521 66.148 13.1133
291.282086 66.265 12.9794
293.392836 66.386 12.8395
295.518881 66.511 12.7000
297.660333 66.641 12.5687
299.817302 66.773 12.4481
301.989902 66.906 12.3276
304.178245 67.042 12.1918
306.382446 67.184 12.0389
308.602620 67.333 11.8815
310.838882 67.491 11.7360
313.091348 67.655 11.6133
315.360137 67.823 11.5128
317.645367 67.994 11.4264
319.947156 68.166 11.3477
322.265625 68.338 11.2732
324.600895 68.508 11.2001
326.953086 68.675 11.1265
329.322323 68.839 11.0528
331.708729 68.999 10.9772
334.112427 69.155 10.8917
336.533543 69.307 10.7853
338.972204 69.459 10.6493
341.428536 69.611 10.4795
343.902668 69.767 10.2792
346.394729 69.930 10.0664
348.904848 70.100 9.8784
351.433156 70.275 9.7566
353.979786 70.450 9.7087
356.544869 70.619 9.7056
359.128540 70.784 9.7142
361.730934 70.944 9.7150
364.352185 71.100 9.7001
366.992431 71.255 9.6677
369.651810 71.409 9.6198
372.330459 71.565 9.5612
375.028519 71.724 9.4972
377.746130 71.886 9.4316
380.483434 72.052 9.3665
383.240574 72.222 9.3022
386.017693 72.396 9.2415
388.814937 72.572 9.1865
391.632450 72.748 9.1360
394.470380 72.924 9.0858
397.328875 73.098 9.0314
400.208084 73.270 8.9674
403.108157 73.443 8.8913
406.029245 73.616 8.8027
408.971500 73.792 8.7020
411.935076 73.971 8.5925
414.920127 74.154 8.4813
417.926810 74.341 8.3763
420.955280 74.530 8.2810
424.005695 74.721 8.1940
427.078215 74.915 8.1127
430.173000 75.110 8.0383
433.290211 75.307 7.9776
436.430010 75.504 7.9404
439.592562 75.698 7.9351
442.778031 75.882 7.9561
445.986583 76.053 7.9697
449.218386 76.209 7.9124
452.473607 76.357 7.7267
455.752418 76.508 7.4210
459.054987 76.668 7.0552
462.381489 76.839 6.6826
465.732096 77.018 6.3285
469.106983 77.203 5.9965
472.506325 77.390 5.6797
475.930301 77.581 5.3688
479.379088 77.775 5.0559
482.852867 77.973 4.7360
486.351817 78.177 4.4059
489.876123 78.390 4.0632
493.425968 78.611 3.7070
497.001536 78.844 3.3373
500.603014 79.087 2.9543
504.230589 79.339 2.5581
507.884452 79.598 2.1477
511.564792 79.858 1.7230
515.271802 80.117 1.2835
519.005673 80.370 0.8275
522.766602 80.616 0.3545
526.554785 80.853 -0.1324
530.370418 81.082 -0.6271
534.213700 81.303 -1.1206
538.084833 81.517 -1.6039
541.984018 81.721 -2.0713
545.911457 81.915 -2.5300
549.867357 82.099 -3.0085
553.851922 82.276 -3.5454
557.865362 82.450 -4.1566
561.907884 82.628 -4.8282
565.979700 82.811 -5.5375
570.081022 83.000 -6.2671
574.212064 83.194 -7.0076
578.373042 83.392 -7.7548
582.564171 83.593 -8.5082
586.785671 83.795 -9.2709
591.037762 83.997 -10.0466
595.320665 84.197 -10.8386
599.634604 84.394 -11.6487
603.979804 84.588 -12.4773
608.356491 84.779 -13.3235
612.764893 84.968 -14.1865
617.205240 85.155 -15.0659
621.677763 85.341 -15.9618
626.182696 85.528 -16.8737
630.720274 85.716 -17.7999
635.290733 85.905 -18.7372
639.894312 86.092 -19.6811
644.531250 86.277 -20.6295
649.201789 86.457 -21.5864
653.906173 86.631 -22.5626
658.644647 86.799 -23.5673
663.417457 86.965 -24.6012
668.224854 87.128 -25.6597
673.067086 87.290 -26.7379
677.944408 87.453 -27.8322
682.857073 87.617 -28.9407
687.805336 87.782 -30.0620
692.789457 87.946 -31.1953
697.809695 88.110 -32.3400
702.866312 88.272 -33.4967
707.959571 88.432 -34.6656
713.089738 88.591 -35.8460
718.257080 88.747 -37.0365
723.461867 88.900 -38.2365
728.704370 89.051 -39.4469
733.984862 89.198 -40.6697
739.303619 89.342 -41.9080
744.660918 89.484 -43.1643
750.057038 89.625 -44.4390
755.492260 89.764 -45.7280
760.966869 89.904 -47.0249
766.481148 90.043 -48.3254
772.035387 90.182 -49.6281
777.629873 90.320 -50.9339
783.264900 90.456 -52.2441
788.940760 90.588 -53.5605
794.657750 90.717 -54.8837
800.416168 90.840 -56.2133
806.216313 90.957 -57.5486
812.058489 91.069 -58.8893
817.943000 91.177 -60.2359
823.870152 91.282 -61.5887
829.840255 91.384 -62.9480
835.853619 91.485 -64.3136
841.910559 91.585 -65.6840
848.011390 91.683 -67.0554
854.156430 91.779 -68.4224
860.346000 91.870 -69.7823
866.580422 91.955 -71.1370
872.860020 92.033 -72.4898
879.185124 92.105 -73.8427
885.556062 92.170 -75.1962
891.973166 92.230 -76.5500
898.436771 92.285 -77.9035
904.947215 92.336 -79.2557
911.504835 92.382 -80.6053
918.109975 92.425 -81.9509
924.762978 92.464 -83.2907
931.464192 92.499 -84.6229
938.213966 92.530 -85.9453
945.012651 92.558 -87.2563
951.860602 92.581 -88.5559
958.758176 92.601 -89.8459
965.705733 92.616 -91.1282
972.703635 92.628 -92.4023
979.752246 92.637 -93.6669
986.851935 92.644 -94.9202
994.003071 92.650 -96.1608
1001.206027 92.654 -97.3870
1008.461179 92.659 -98.5976
1015.768904 92.664 -99.7913
1023.129584 92.671 -100.9669
1030.543603 92.679 -102.1230
1038.011347 92.689 -103.2579
1045.533205 92.698 -104.3692
1053.109569 92.708 -105.4540
1060.740836 92.717 -106.5107
1068.427401 92.725 -107.5398
1076.169666 92.731 -108.5431
1083.968035 92.736 -109.5220
1091.822915 92.740 -110.4769
1099.734713 92.743 -111.4074
1107.703844 92.745 -112.3127
1115.730723 92.745 -113.1918
1123.815768 92.743 -114.0443
1131.959400 92.740 -114.8706
1140.162045 92.734 -115.6724
1148.424129 92.727 -116.4529
1156.746083 92.720 -117.2174
1165.128342 92.716 -117.9702
1173.571343 92.715 -118.7131
1182.075524 92.718 -119.4467
1190.641331 92.725 -120.1716
1199.269209 92.736 -120.8895
1207.959608 92.749 -121.6031
1216.712981 92.764 -122.3162
1225.529785 92.782 -123.0330
1234.410479 92.802 -123.7573
1243.355526 92.824 -124.4914
1252.365393 92.849 -125.2354
1261.440549 92.875 -125.9885
1270.581467 92.904 -126.7509
1279.788624 92.933 -127.5248
1289.062500 92.963 -128.3131
1298.403578 92.994 -129.1179
1307.812346 93.026 -129.9406
1317.289293 93.057 -130.7818
1326.834914 93.088 -131.6412
1336.449707 93.119 -132.5188
1346.134173 93.149 -133.4145
1355.888816 93.177 -134.3290
1365.714145 93.204 -135.2627
1375.610673 93.229 -136.2147
1385.578915 93.251 -137.1828
1395.619391 93.271 -138.1649
1405.732624 93.288 -139.1587
1415.919142 93.302 -140.1624
1426.179476 93.312 -141.1738
1436.514160 93.316 -142.1908
1446.923734 93.315 -143.2112
1457.408740 93.306 -144.2344
1467.969724 93.289 -145.2609
1478.607238 93.262 -146.2913
1489.321836 93.225 -147.3250
1500.114076 93.176 -148.3610
1510.984521 93.115 -149.3982
1521.933737 93.041 -150.4354
1532.962297 92.955 -151.4706
1544.070773 92.856 -152.5014
1555.259747 92.745 -153.5253
1566.529800 92.622 -154.5417
1577.881521 92.488 -155.5506
1589.315501 92.344 -156.5507
1600.832336 92.193 -157.5396
1612.432627 92.035 -158.5134
1624.116978 91.872 -159.4680
1635.886000 91.704 -160.3980
1647.740304 91.530 -161.2975
1659.680509 91.349 -162.1599
1671.707238 91.161 -162.9794
1683.821118 90.965 -163.7509
1696.022780 90.762 -164.4688
1708.312860 90.553 -165.1272
1720.692000 90.338 -165.7195
1733.160843 90.117 -166.2402
1745.720041 89.891 -166.6851
1758.370248 89.662 -167.0513
1771.112124 89.429 -167.3352
1783.946332 89.194 -167.5330
1796.873543 88.958 -167.6418
1809.894429 88.724 -167.6599
1823.009670 88.492 -167.5874
1836.219950 88.265 -167.4269
1849.525956 88.046 -167.1839
1862.928384 87.835 -166.8665
1876.427931 87.637 -166.4841
1890.025301 87.451 -166.0467
1903.721204 87.280 -165.5663
1917.516352 87.126 -165.0569
1931.411466 86.990 -164.5337
1945.407270 86.873 -164.0132
1959.504493 86.776 -163.5110
1973.703870 86.700 -163.0402
1988.006142 86.643 -162.6108
2002.412054 86.603 -162.2311
2016.922357 86.578 -161.9084
2031.537808 86.565 -161.6483
2046.259169 86.561 -161.4532
2061.087206 86.565 -161.3215
2076.022694 86.572 -161.2494
2091.066410 86.580 -161.2319
2106.219139 86.583 -161.2633
2121.481671 86.579 -161.3364
2136.854802 86.566 -161.4420
2152.339333 86.542 -161.5693
2167.936071 86.505 -161.7069
2183.645829 86.454 -161.8436
2199.469427 86.387 -161.9676
2215.407689 86.305 -162.0652
2231.461446 86.207 -162.1202
2247.631536 86.093 -162.1138
2263.918800 85.964 -162.0244
2280.324089 85.820 -161.8284
2296.848258 85.663 -161.5032
2313.492167 85.496 -161.0276
2330.256685 85.324 -160.3830
2347.142685 85.152 -159.5551
2364.151049 84.986 -158.5359
2381.282662 84.831 -157.3256
2398.538418 84.694 -155.9335
2415.919216 84.580 -154.3804
2433.425962 84.491 -152.6983
2451.059570 84.431 -150.9284
2468.820958 84.401 -149.1179
2486.711052 84.401 -147.3163
2504.730786 84.431 -145.5721
2522.881098 84.488 -143.9289
2541.162934 84.571 -142.4231
2559.577248 84.675 -141.0825
2578.125000 84.798 -139.9248
2596.807157 84.936 -138.9559
2615.624692 85.085 -138.1708
2634.578586 85.243 -137.5566
2653.669829 85.408 -137.0948
2672.899414 85.577 -136.7635
2692.268345 85.751 -136.5394
2711.777632 85.926 -136.3981
2731.428290 86.102 -136.3167
2751.221345 86.275 -136.2753
2771.157829 86.444 -136.2589
2791.238781 86.604 -136.2578
2811.465248 86.756 -136.2679
2831.838284 86.898 -136.2916
2852.358952 87.031 -136.3358
2873.028321 87.156 -136.4116
2893.847468 87.275 -136.5320
2914.817480 87.391 -136.7106
2935.939449 87.508 -136.9586
2957.214476 87.628 -137.2839
2978.643672 87.753 -137.6877
3000.228152 87.883 -138.1648
3021.969041 88.020 -138.7040
3043.867475 88.164 -139.2909
3065.924593 88.314 -139.9096
3088.141547 88.470 -140.5465
3110.519493 88.628 -141.1926
3133.059600 88.784 -141.8453
3155.763041 88.931 -142.5089
3178.631001 89.067 -143.1929
3201.664672 89.186 -143.9102
3224.865254 89.287 -144.6752
3248.233957 89.368 -145.5010
3271.771999 89.429 -146.3960
3295.480608 89.468 -147.3617
3319.361019 89.485 -148.3905
3343.414477 89.481 -149.4653
3367.642236 89.454 -150.5610
3392.045560 89.404 -151.6464
3416.625721 89.329 -152.6873
3441.383999 89.229 -153.6490
3466.321686 89.102 -154.5004
3491.440082 88.946 -155.2162
3516.740496 88.763 -155.7772
3542.224247 88.552 -156.1716
3567.892664 88.320 -156.3938
3593.747085 88.074 -156.4437
3619.788858 87.826 -156.3246
3646.019340 87.589 -156.0431
3672.439900 87.378 -155.6096
3699.051913 87.204 -155.0396
3725.856768 87.077 -154.3569
3752.855862 87.001 -153.5952
3780.050603 86.976 -152.7991
3807.442408 86.996 -152.0233
3835.032705 87.052 -151.3282
3862.822933 87.135 -150.7737
3890.814540 87.235 -150.4119
3919.008986 87.343 -150.2811
3947.407741 87.453 -150.4012
3976.012284 87.563 -150.7696
4004.824108 87.669 -151.3600
4033.844715 87.772 -152.1244
4063.075616 87.870 -152.9978
4092.518337 87.960 -153.9070
4122.174412 88.040 -154.7802
4152.045387 88.106 -155.5570
4182.132820 88.155 -156.1948
4212.438278 88.188 -156.6698
4242.963342 88.210 -156.9750
4273.709604 88.227 -157.1145
4304.678665 88.248 -157.0977
4335.872141 88.284 -156.9340
4367.291658 88.344 -156.6313
4398.938854 88.431 -156.1971
4430.815378 88.545 -155.6422
4462.922893 88.679 -154.9860
4495.263072 88.822 -154.2587
4527.837601 88.960 -153.5024
4560.648179 89.079 -152.7673
4593.696515 89.169 -152.1032
4626.984334 89.221 -151.5494
4660.513370 89.232 -151.1247
4694.285371 89.202 -150.8206
4728.302098 89.134 -150.5994
4762.565324 89.029 -150.4006
4797.076835 88.890 -150.1533
4831.838432 88.716 -149.7907
4866.851925 88.510 -149.2618
4902.119140 88.275 -148.5371
4937.641916 88.022 -147.6104
4973.422105 87.765 -146.4974
5009.461572 87.529 -145.2362
5045.762195 87.337 -143.8878
5082.325868 87.215 -142.5326
5119.154496 87.175 -141.2642
5156.250000 87.217 -140.1790
5193.614313 87.325 -139.3639
5231.249383 87.472 -138.8823
5269.157173 87.634 -138.7646
5307.339658 87.789 -139.0007
5345.798829 87.926 -139.5360
5384.536691 88.042 -140.2732
5423.555263 88.140 -141.0834
5462.856580 88.225 -141.8291
5502.442691 88.303 -142.3943
5542.315659 88.380 -142.7143
5582.477563 88.457 -142.7907
5622.930497 88.537 -142.6851
5663.676569 88.621 -142.4908
5704.717904 88.711 -142.2936
5746.056642 88.803 -142.1391
5787.694937 88.896 -142.0210
5829.634960 88.984 -141.8949
5871.878898 89.060 -141.7099
5914.428953 89.122 -141.4396
5957.287343 89.171 -141.0995
6000.456303 89.213 -140.7416
6043.938083 89.256 -140.4327
6087.734950 89.309 -140.2277
6131.849187 89.377 -140.1531
6176.283094 89.460 -140.2109
6221.038987 89.551 -140.3959
6266.119200 89.640 -140.7142
6311.526083 89.721 -141.1891
6357.262002 89.788 -141.8482
6403.329344 89.841 -142.7021
6449.730508 89.877 -143.7274
6496.467914 89.893 -144.8655
6543.543998 89.882 -146.0392
6590.961215 89.839 -147.1754
6638.722037 89.759 -148.2195
6686.828954 89.648 -149.1367
6735.284473 89.518 -149.9036
6784.091120 89.387 -150.5036
6833.251441 89.268 -150.9336
6882.767998 89.171 -151.2182
6932.643372 89.093 -151.4161
6982.880164 89.030 -151.6075
7033.480992 88.975 -151.8640
7084.448495 88.926 -152.2195
7135.785329 88.885 -152.6600
7187.494171 88.853 -153.1396
7239.577717 88.826 -153.6146
7292.038681 88.802 -154.0695
7344.879799 88.775 -154.5176
7398.103826 88.747 -154.9766
7451.713536 88.721 -155.4415
7505.711724 88.703 -155.8796
7560.101205 88.696 -156.2533
7614.884815 88.700 -156.5515
7670.065409 88.714 -156.7986
7725.645865 88.738 -157.0318
7781.629080 88.774 -157.2643
7838.017972 88.827 -157.4723
7894.815481 88.896 -157.6206
7952.024569 88.980 -157.7127
8009.648217 89.075 -157.8184
8067.689429 89.176 -158.0515
8126.151233 89.275 -158.5079
8185.036674 89.360 -159.2130
8244.348824 89.414 -160.1152
8304.090774 89.425 -161.1241
8364.265639 89.389 -162.1531
8424.876556 89.312 -163.1367
8485.926684 89.211 -164.0270
8547.419207 89.101 -164.7892
8609.357330 88.990 -165.4077
8671.744282 88.879 -165.8862
8734.583316 88.764 -166.2277
8797.877707 88.653 -166.4114
8861.630756 88.555 -166.4012
8925.845785 88.482 -166.1984
8990.526143 88.439 -165.8919
9055.675202 88.417 -165.6415
9121.296357 88.401 -165.5858
9187.393031 88.374 -165.7519
9253.968668 88.329 -166.0498
9321.026740 88.262 -166.3537
9388.570742 88.182 -166.5927
9456.604196 88.104 -166.7731
9525.130648 88.036 -166.9297
9594.153671 87.980 -167.0721
9663.676863 87.926 -167.1769
9733.703850 87.860 -167.2130
9804.238280 87.775 -167.1465
9875.283832 87.669 -166.9198
9946.844210 87.545 -166.4483
10018.923143 87.409 -165.6653
10091.524390 87.277 -164.5836
10164.651736 87.169 -163.3196
10238.308993 87.105 -162.0575
10312.500000 87.091 -160.9841
10387.228626 87.114 -160.2340
10462.498767 87.157 -159.8597
10538.314345 87.207 -159.8185
10614.679315 87.260 -159.9874
10691.597657 87.318 -160.2179
10769.073381 87.388 -160.3953
10847.110526 87.481 -160.4559
10925.713161 87.614 -160.3720
11004.885382 87.796 -160.1540
11084.631318 88.021 -159.8705
11164.955126 88.275 -159.6362
11245.860993 88.537 -159.5557
11327.353138 88.781 -159.6799
11409.435808 88.980 -160.0129
11492.113283 89.112 -160.5252
11575.389873 89.166 -161.1413
11659.269920 89.147 -161.7445
11743.757796 89.065 -162.2349
11828.857906 88.941 -162.5826
11914.574686 88.802 -162.8082
12000.912606 88.673 -162.9296
12087.876166 88.572 -162.9534
12175.469900 88.514 -162.9040
12263.698373 88.509 -162.8230
12352.566187 88.565 -162.7513
12442.077974 88.673 -162.7345
12532.238400 88.819 -162.8296
12623.052165 88.986 -163.0767
12714.524005 89.158 -163.4745
12806.658687 89.318 -163.9987
12899.461015 89.456 -164.6134
12992.935827 89.571 -165.2549
13087.087996 89.671 -165.8417
13181.922430 89.768 -166.3282
13277.444074 89.881 -166.7326
13373.657907 90.022 -167.1197
13470.568945 90.191 -167.5841
13568.182241 90.374 -168.2194
13666.502883 90.550 -169.0524
13765.535996 90.703 -170.0180
13865.286744 90.825 -171.0173
13965.760328 90.918 -171.9729
14066.961984 90.990 -172.8361
14168.896989 91.051 -173.6021
14271.570658 91.106 -174.3280
14374.988342 91.160 -175.1035
14479.155433 91.206 -176.0093
14584.077362 91.233 -177.0929
14689.759598 91.231 -178.3397
14796.207652 91.194 -179.6641
14903.427072 91.125 179.0437
15011.423448 91.031 177.8811
15120.202410 90.931 176.9174
15229.769630 90.839 176.1566
15340.130819 90.764 175.5223
15451.291730 90.706 174.9089
15563.258160 90.648 174.2326
15676.035944 90.571 173.4713
15789.630962 90.464 172.6908
15904.049137 90.326 171.9984
16019.296433 90.172 171.4619
16135.378859 90.023 171.0817
16252.302465 89.901 170.7881
16370.073348 89.816 170.4626
16488.697648 89.769 170.0083
16608.181548 89.745 169.3927
16728.531278 89.726 168.6592
16849.753112 89.699 167.9138
16971.853368 89.657 167.2605
17094.838414 89.602 166.7553
17218.714660 89.539 166.4106
17343.488565 89.471 166.1882
17469.166632 89.401 166.0212
17595.755415 89.324 165.8566
17723.261512 89.234 165.6683
17851.691571 89.126 165.4724
17981.052287 89.003 165.3104
18111.350404 88.868 165.2134
18242.592715 88.732 165.1925
18374.786062 88.602 165.2142
18507.937336 88.484 165.2092
18642.053479 88.375 165.1133
18777.141484 88.266 164.8869
18913.208391 88.149 164.5399
19050.261296 88.019 164.1068
19188.307342 87.880 163.6114
19327.353727 87.739 163.0641
19467.407699 87.603 162.4595
19608.476560 87.483 161.8101
19750.567664 87.388 161.1669
19893.688419 87.323 160.6260
20037.846286 87.291 160.3115
