* Measurement data measured by REW V5.31.3
* Source: Microphone (Conexant ISST Audio), MICROPHONE (Master Volume), R, volume: 0.500
* Format: 256k Log Swept Sine, 1 sweep at 0.0 dBFS with no timing reference
* Dated: Aug 8, 2025 2:05:52 PM
* REW Settings:
*  C-weighting compensation: Off
*  Target level: 75.0 dB
* Note: 
* Measurement: L Woofer Only 2 Aug 8
* Smoothing: 1/12 octave
* Frequency Step: 96 ppo
* Start Frequency: 20.141602 Hz
*
* Freq(Hz) SPL(dB) Phase(degrees)
20.141602 73.157 -39.7040
20.287556 73.148 -39.7925
20.434568 73.134 -39.9205
20.582645 73.117 -40.0730
20.731796 73.096 -40.2380
20.882027 73.073 -40.4075
21.033346 73.047 -40.5776
21.185763 73.019 -40.7473
21.339284 72.989 -40.9178
21.493917 72.956 -41.0912
21.649671 72.922 -41.2705
21.806553 72.886 -41.4586
21.964572 72.849 -41.6578
22.123737 72.812 -41.8703
22.284054 72.776 -42.0970
22.445534 72.741 -42.3377
22.608183 72.709 -42.5915
22.772012 72.681 -42.8560
22.937027 72.657 -43.1282
23.103238 72.637 -43.4039
23.270654 72.621 -43.6790
23.439282 72.607 -43.9489
23.609133 72.595 -44.2097
23.780215 72.584 -44.4579
23.952536 72.575 -44.6912
24.126106 72.567 -44.9089
24.300934 72.562 -45.1115
24.477028 72.560 -45.3012
24.654399 72.560 -45.4816
24.833055 72.561 -45.6576
25.013005 72.562 -45.8351
25.194260 72.563 -46.0205
25.376828 72.562 -46.2201
25.560719 72.559 -46.4400
25.745942 72.554 -46.6852
25.932508 72.548 -46.9592
26.120426 72.544 -47.2638
26.309705 72.544 -47.5987
26.500356 72.549 -47.9611
26.692388 72.560 -48.3466
26.885812 72.578 -48.7484
27.080638 72.604 -49.1586
27.276876 72.635 -49.5685
27.474535 72.674 -49.9692
27.673627 72.717 -50.3522
27.874161 72.765 -50.7102
28.076149 72.816 -51.0374
28.279600 72.869 -51.3301
28.484526 72.923 -51.5864
28.690937 72.976 -51.8066
28.898843 73.028 -51.9929
29.108256 73.076 -52.1493
29.319186 73.121 -52.2811
29.531645 73.161 -52.3950
29.745644 73.197 -52.4983
29.961193 73.227 -52.5991
30.178304 73.251 -52.7055
30.396989 73.271 -52.8258
30.617258 73.287 -52.9674
30.839123 73.299 -53.1369
31.062596 73.309 -53.3395
31.287688 73.317 -53.5787
31.514412 73.326 -53.8554
31.742778 73.337 -54.1684
31.972800 73.352 -54.5137
32.204488 73.371 -54.8852
32.437855 73.395 -55.2748
32.672913 73.426 -55.6735
32.909674 73.464 -56.0721
33.148151 73.508 -56.4622
33.388356 73.559 -56.8369
33.630302 73.615 -57.1917
33.874001 73.674 -57.5244
34.119466 73.735 -57.8349
34.366710 73.794 -58.1249
34.615745 73.851 -58.3971
34.866585 73.904 -58.6543
35.119243 73.955 -58.8992
35.373731 74.003 -59.1340
35.630064 74.049 -59.3603
35.888254 74.093 -59.5802
36.148315 74.135 -59.7962
36.410261 74.175 -60.0125
36.674104 74.215 -60.2348
36.939860 74.255 -60.4700
37.207542 74.295 -60.7257
37.477163 74.338 -61.0074
37.748738 74.384 -61.3173
38.022281 74.434 -61.6516
38.297806 74.489 -62.0000
38.575327 74.549 -62.3455
38.854860 74.613 -62.6673
39.136419 74.680 -62.9445
39.420017 74.748 -63.1614
39.705671 74.813 -63.3123
39.993395 74.870 -63.4051
40.283203 74.917 -63.4614
40.575112 74.951 -63.5145
40.869136 74.974 -63.6033
41.165290 74.989 -63.7645
41.463591 75.001 -64.0222
41.764053 75.019 -64.3797
42.066693 75.049 -64.8141
42.371525 75.097 -65.2777
42.678567 75.164 -65.7088
42.987834 75.245 -66.0480
43.299341 75.332 -66.2563
43.613106 75.414 -66.3287
43.929145 75.482 -66.2987
44.247473 75.529 -66.2325
44.568109 75.558 -66.2137
44.891068 75.574 -66.3192
45.216367 75.594 -66.5912
45.544023 75.634 -67.0106
45.874054 75.711 -67.4836
46.206476 75.832 -67.8526
46.541307 75.990 -67.9369
46.878565 76.165 -67.5867
47.218266 76.326 -66.7289
47.560429 76.440 -65.3870
47.905072 76.477 -63.6786
48.252212 76.411 -61.8023
48.601867 76.228 -60.0250
48.954056 75.926 -58.6725
49.308798 75.520 -58.1151
49.666109 75.054 -58.7246
50.026010 74.598 -60.7647
50.388520 74.243 -64.1998
50.753656 74.076 -68.5213
51.121437 74.128 -72.8424
51.491884 74.361 -76.3223
51.865016 74.691 -78.5507
52.240851 75.030 -79.5747
52.619410 75.319 -79.7025
53.000712 75.529 -79.3148
53.384777 75.658 -78.7578
53.771625 75.723 -78.2925
54.161276 75.750 -78.0709
54.553751 75.767 -78.1306
54.949070 75.798 -78.4109
55.347254 75.853 -78.7962
55.748323 75.930 -79.1705
56.152298 76.018 -79.4628
56.559201 76.105 -79.6617
56.969052 76.185 -79.8019
57.381873 76.255 -79.9339
57.797686 76.318 -80.0953
58.216512 76.381 -80.2943
58.638373 76.447 -80.5117
59.063291 76.516 -80.7155
59.491288 76.586 -80.8812
59.922386 76.652 -81.0052
60.356608 76.711 -81.1054
60.793977 76.761 -81.2114
61.234515 76.805 -81.3493
61.678246 76.845 -81.5309
62.125192 76.887 -81.7503
62.575377 76.931 -81.9908
63.028824 76.977 -82.2353
63.485557 77.023 -82.4765
63.945599 77.067 -82.7193
64.408975 77.110 -82.9764
64.875709 77.152 -83.2601
65.345825 77.196 -83.5740
65.819348 77.244 -83.9108
66.296302 77.297 -84.2542
66.776713 77.355 -84.5859
67.260604 77.417 -84.8918
67.748002 77.479 -85.1663
68.238932 77.541 -85.4119
68.733420 77.601 -85.6366
69.231490 77.658 -85.8499
69.733170 77.712 -86.0600
70.238485 77.764 -86.2720
70.747463 77.814 -86.4884
71.260128 77.863 -86.7104
71.776508 77.911 -86.9388
72.296630 77.958 -87.1751
72.820521 78.004 -87.4209
73.348209 78.049 -87.6771
73.879720 78.096 -87.9435
74.415083 78.142 -88.2184
74.954326 78.190 -88.4995
75.497475 78.239 -88.7847
76.044561 78.289 -89.0723
76.595612 78.341 -89.3597
77.150655 78.394 -89.6432
77.709720 78.449 -89.9177
78.272837 78.504 -90.1791
78.840034 78.559 -90.4258
79.411342 78.614 -90.6605
79.986789 78.668 -90.8885
80.566406 78.722 -91.1147
81.150224 78.776 -91.3418
81.738272 78.830 -91.5714
82.330581 78.884 -91.8069
82.927182 78.938 -92.0559
83.528107 78.989 -92.3290
84.133386 79.040 -92.6332
84.743051 79.092 -92.9659
85.357134 79.147 -93.3122
85.975667 79.205 -93.6502
86.598682 79.266 -93.9619
87.226212 79.328 -94.2422
87.858289 79.389 -94.5005
88.494946 79.449 -94.7549
89.136217 79.510 -95.0210
89.782135 79.573 -95.3050
90.432733 79.640 -95.6029
91.088046 79.710 -95.9050
91.748108 79.781 -96.2024
92.412952 79.853 -96.4907
93.082615 79.921 -96.7698
93.757130 79.987 -97.0427
94.436533 80.049 -97.3146
95.120859 80.109 -97.5918
95.810144 80.167 -97.8805
96.504423 80.225 -98.1848
97.203734 80.285 -98.5050
97.908112 80.347 -98.8371
98.617595 80.411 -99.1741
99.332219 80.475 -99.5066
100.052021 80.539 -99.8250
100.777039 80.603 -100.1207
101.507311 80.664 -100.3896
102.242875 80.722 -100.6349
102.983769 80.775 -100.8667
103.730032 80.824 -101.0993
104.481702 80.870 -101.3446
105.238820 80.914 -101.6084
106.001424 80.958 -101.8892
106.769554 81.003 -102.1807
107.543250 81.049 -102.4759
108.322553 81.095 -102.7709
109.107503 81.141 -103.0659
109.898141 81.187 -103.3644
110.694508 81.233 -103.6697
111.496646 81.280 -103.9810
112.304596 81.329 -104.2939
113.118402 81.378 -104.6029
113.938104 81.428 -104.9053
114.763747 81.478 -105.2024
115.595372 81.528 -105.4977
116.433024 81.580 -105.7935
117.276746 81.633 -106.0886
118.126581 81.688 -106.3784
118.982575 81.746 -106.6586
119.844772 81.804 -106.9290
120.713217 81.862 -107.1949
121.587954 81.919 -107.4638
122.469031 81.974 -107.7403
123.356492 82.027 -108.0241
124.250384 82.076 -108.3139
125.150753 82.123 -108.6110
126.057647 82.167 -108.9189
126.971113 82.210 -109.2394
127.891198 82.253 -109.5705
128.817950 82.297 -109.9073
129.751418 82.341 -110.2434
130.691651 82.384 -110.5729
131.638696 82.426 -110.8933
132.592604 82.464 -111.2068
133.553425 82.499 -111.5180
134.521208 82.529 -111.8310
135.496004 82.556 -112.1476
136.477864 82.582 -112.4659
137.466839 82.605 -112.7821
138.462981 82.628 -113.0929
139.466340 82.649 -113.3958
140.476971 82.670 -113.6888
141.494925 82.691 -113.9698
142.520256 82.714 -114.2316
143.553016 82.742 -114.4549
144.593260 82.775 -114.6102
145.641043 82.810 -114.6666
146.696418 82.839 -114.5998
147.759441 82.848 -114.4184
148.830166 82.824 -114.2134
149.908651 82.765 -114.1588
150.994951 82.690 -114.4063
152.089123 82.625 -114.9604
153.191223 82.593 -115.6834
154.301310 82.596 -116.4218
155.419441 82.627 -117.0915
156.545674 82.678 -117.6685
157.680069 82.740 -118.1596
158.822683 82.807 -118.5874
159.973578 82.877 -118.9741
161.132813 82.946 -119.3342
162.300447 83.015 -119.6780
163.476543 83.083 -120.0133
164.661162 83.149 -120.3451
165.854364 83.214 -120.6771
167.056213 83.278 -121.0108
168.266772 83.341 -121.3452
169.486102 83.403 -121.6769
170.714268 83.463 -122.0032
171.951334 83.520 -122.3233
173.197364 83.573 -122.6398
174.452424 83.621 -122.9581
175.716578 83.665 -123.2830
176.989893 83.705 -123.6156
178.272434 83.742 -123.9526
179.564270 83.778 -124.2899
180.865467 83.813 -124.6241
182.176092 83.847 -124.9539
183.496216 83.881 -125.2800
184.825905 83.914 -125.6037
186.165229 83.948 -125.9257
187.514259 83.984 -126.2468
188.873065 84.020 -126.5687
190.241717 84.058 -126.8928
191.620287 84.097 -127.2194
193.008847 84.136 -127.5478
194.407468 84.173 -127.8780
195.816225 84.209 -128.2113
197.235190 84.242 -128.5476
198.664438 84.274 -128.8851
200.104042 84.305 -129.2211
201.554078 84.337 -129.5530
203.014622 84.370 -129.8788
204.485750 84.404 -130.1978
205.967538 84.440 -130.5101
207.460064 84.476 -130.8171
208.963405 84.512 -131.1214
210.477640 84.546 -131.4266
212.002848 84.578 -131.7358
213.539108 84.610 -132.0502
215.086500 84.641 -132.3692
216.645105 84.674 -132.6904
218.215005 84.709 -133.0108
219.796281 84.745 -133.3287
221.389015 84.783 -133.6441
222.993292 84.820 -133.9573
224.609193 84.857 -134.2676
226.236804 84.892 -134.5736
227.876209 84.924 -134.8746
229.527494 84.950 -135.1722
231.190745 84.972 -135.4692
232.866048 84.989 -135.7690
234.553491 85.002 -136.0744
236.253163 85.012 -136.3880
237.965150 85.018 -136.7133
239.689544 85.023 -137.0558
241.426433 85.027 -137.4239
243.175909 85.031 -137.8268
244.938062 85.039 -138.2669
246.712984 85.053 -138.7266
248.500768 85.075 -139.1585
250.301507 85.101 -139.4991
252.115295 85.122 -139.7205
253.942226 85.130 -139.8601
255.782396 85.124 -139.9772
257.635901 85.107 -140.1116
259.502837 85.084 -140.2778
261.383301 85.058 -140.4741
263.277392 85.031 -140.6922
265.185209 85.005 -140.9238
267.106850 84.978 -141.1628
269.042417 84.953 -141.4054
270.992009 84.928 -141.6487
272.955729 84.903 -141.8897
274.933678 84.879 -142.1271
276.925961 84.855 -142.3600
278.932681 84.830 -142.5886
280.953942 84.807 -142.8134
282.989850 84.783 -143.0355
285.040511 84.761 -143.2555
287.106032 84.741 -143.4725
289.186521 84.723 -143.6847
291.282086 84.709 -143.8896
293.392836 84.699 -144.0857
295.518881 84.693 -144.2726
297.660333 84.690 -144.4515
299.817302 84.690 -144.6240
301.989902 84.693 -144.7908
304.178245 84.700 -144.9524
306.382446 84.710 -145.1083
308.602620 84.726 -145.2580
310.838882 84.746 -145.4008
313.091348 84.772 -145.5370
315.360137 84.803 -145.6680
317.645367 84.838 -145.7955
319.947156 84.876 -145.9201
322.265625 84.917 -146.0412
324.600895 84.958 -146.1572
326.953086 84.999 -146.2659
329.322323 85.039 -146.3653
331.708729 85.076 -146.4536
334.112427 85.112 -146.5303
336.533543 85.146 -146.5956
338.972204 85.177 -146.6501
341.428536 85.206 -146.6930
343.902668 85.232 -146.7237
346.394729 85.255 -146.7437
348.904848 85.276 -146.7593
351.433156 85.295 -146.7808
353.979786 85.315 -146.8138
356.544869 85.338 -146.8541
359.128540 85.364 -146.8923
361.730934 85.391 -146.9214
364.352185 85.418 -146.9396
366.992431 85.443 -146.9487
369.651810 85.468 -146.9519
372.330459 85.493 -146.9509
375.028519 85.519 -146.9464
377.746130 85.547 -146.9387
380.483434 85.577 -146.9283
383.240574 85.611 -146.9155
386.017693 85.648 -146.9019
388.814937 85.687 -146.8894
391.632450 85.727 -146.8793
394.470380 85.766 -146.8717
397.328875 85.806 -146.8662
400.208084 85.845 -146.8627
403.108157 85.883 -146.8615
406.029245 85.921 -146.8627
408.971500 85.960 -146.8672
411.935076 86.000 -146.8762
414.920127 86.041 -146.8907
417.926810 86.083 -146.9116
420.955280 86.126 -146.9392
424.005695 86.171 -146.9736
427.078215 86.217 -147.0163
430.173000 86.264 -147.0696
433.290211 86.313 -147.1376
436.430010 86.362 -147.2237
439.592562 86.414 -147.3285
442.778031 86.468 -147.4462
445.986583 86.525 -147.5634
449.218386 86.581 -147.6610
452.473607 86.634 -147.7298
455.752418 86.681 -147.7826
459.054987 86.722 -147.8416
462.381489 86.757 -147.9222
465.732096 86.790 -148.0301
469.106983 86.823 -148.1651
472.506325 86.856 -148.3233
475.930301 86.892 -148.4994
479.379088 86.931 -148.6893
482.852867 86.974 -148.8910
486.351817 87.022 -149.1049
489.876123 87.076 -149.3329
493.425968 87.138 -149.5767
497.001536 87.209 -149.8377
500.603014 87.290 -150.1162
504.230589 87.381 -150.4113
507.884452 87.478 -150.7215
511.564792 87.578 -151.0456
515.271802 87.676 -151.3837
519.005673 87.768 -151.7364
522.766602 87.851 -152.1051
526.554785 87.924 -152.4919
530.370418 87.987 -152.8992
534.213700 88.041 -153.3275
538.084833 88.087 -153.7739
541.984018 88.129 -154.2315
545.911457 88.167 -154.6890
549.867357 88.202 -155.1343
553.851922 88.233 -155.5657
557.865362 88.259 -155.9961
561.907884 88.281 -156.4400
565.979700 88.302 -156.9039
570.081022 88.323 -157.3880
574.212064 88.345 -157.8896
578.373042 88.368 -158.4052
582.564171 88.394 -158.9324
586.785671 88.420 -159.4690
591.037762 88.445 -160.0139
595.320665 88.469 -160.5665
599.634604 88.490 -161.1260
603.979804 88.508 -161.6916
608.356491 88.521 -162.2626
612.764893 88.531 -162.8381
617.205240 88.538 -163.4177
621.677763 88.543 -164.0013
626.182696 88.548 -164.5886
630.720274 88.553 -165.1786
635.290733 88.559 -165.7695
639.894312 88.564 -166.3578
644.531250 88.567 -166.9387
649.201789 88.568 -167.5074
653.906173 88.564 -168.0639
658.644647 88.555 -168.6148
663.417457 88.540 -169.1647
668.224854 88.522 -169.7133
673.067086 88.501 -170.2580
677.944408 88.480 -170.7963
682.857073 88.459 -171.3265
687.805336 88.439 -171.8476
692.789457 88.418 -172.3590
697.809695 88.397 -172.8599
702.866312 88.375 -173.3485
707.959571 88.353 -173.8221
713.089738 88.329 -174.2790
718.257080 88.303 -174.7190
723.461867 88.276 -175.1420
728.704370 88.247 -175.5479
733.984862 88.216 -175.9360
739.303619 88.184 -176.3069
744.660918 88.149 -176.6635
750.057038 88.115 -177.0097
755.492260 88.080 -177.3466
760.966869 88.047 -177.6709
766.481148 88.017 -177.9787
772.035387 87.989 -178.2684
777.629873 87.964 -178.5397
783.264900 87.941 -178.7926
788.940760 87.920 -179.0273
794.657750 87.899 -179.2449
800.416168 87.877 -179.4474
806.216313 87.854 -179.6365
812.058489 87.831 -179.8137
817.943000 87.809 -179.9810
823.870152 87.788 179.8588
829.840255 87.770 179.7022
835.853619 87.757 179.5458
841.910559 87.749 179.3880
848.011390 87.746 179.2307
854.156430 87.749 179.0793
860.346000 87.754 178.9365
866.580422 87.760 178.7989
872.860020 87.767 178.6602
879.185124 87.773 178.5157
885.556062 87.780 178.3622
891.973166 87.788 178.1983
898.436771 87.798 178.0235
904.947215 87.810 177.8365
911.504835 87.823 177.6357
918.109975 87.839 177.4202
924.762978 87.856 177.1900
931.464192 87.875 176.9464
938.213966 87.895 176.6907
945.012651 87.915 176.4221
951.860602 87.935 176.1373
958.758176 87.954 175.8309
965.705733 87.973 175.5004
972.703635 87.992 175.1475
979.752246 88.011 174.7751
986.851935 88.031 174.3865
994.003071 88.051 173.9836
1001.206027 88.072 173.5680
1008.461179 88.094 173.1405
1015.768904 88.118 172.7017
1023.129584 88.142 172.2522
1030.543603 88.168 171.7933
1038.011347 88.195 171.3279
1045.533205 88.221 170.8602
1053.109569 88.246 170.3937
1060.740836 88.268 169.9281
1068.427401 88.286 169.4610
1076.169666 88.301 168.9904
1083.968035 88.313 168.5166
1091.822915 88.322 168.0412
1099.734713 88.327 167.5661
1107.703844 88.329 167.0930
1115.730723 88.327 166.6228
1123.815768 88.320 166.1560
1131.959400 88.309 165.6920
1140.162045 88.294 165.2285
1148.424129 88.277 164.7622
1156.746083 88.260 164.2917
1165.128342 88.244 163.8199
1173.571343 88.232 163.3510
1182.075524 88.223 162.8872
1190.641331 88.218 162.4282
1199.269209 88.216 161.9726
1207.959608 88.216 161.5192
1216.712981 88.220 161.0669
1225.529785 88.225 160.6150
1234.410479 88.233 160.1636
1243.355526 88.243 159.7130
1252.365393 88.253 159.2616
1261.440549 88.265 158.8051
1270.581467 88.278 158.3391
1279.788624 88.291 157.8615
1289.062500 88.304 157.3716
1298.403578 88.318 156.8686
1307.812346 88.330 156.3510
1317.289293 88.342 155.8173
1326.834914 88.351 155.2657
1336.449707 88.359 154.6949
1346.134173 88.364 154.1046
1355.888816 88.366 153.4962
1365.714145 88.364 152.8727
1375.610673 88.358 152.2356
1385.578915 88.347 151.5848
1395.619391 88.331 150.9193
1405.732624 88.308 150.2386
1415.919142 88.279 149.5432
1426.179476 88.243 148.8339
1436.514160 88.201 148.1123
1446.923734 88.152 147.3809
1457.408740 88.097 146.6448
1467.969724 88.034 145.9100
1478.607238 87.963 145.1815
1489.321836 87.883 144.4622
1500.114076 87.794 143.7550
1510.984521 87.696 143.0632
1521.933737 87.590 142.3899
1532.962297 87.477 141.7389
1544.070773 87.358 141.1152
1555.259747 87.233 140.5259
1566.529800 87.105 139.9771
1577.881521 86.975 139.4710
1589.315501 86.842 139.0051
1600.832336 86.711 138.5746
1612.432627 86.581 138.1738
1624.116978 86.455 137.7966
1635.886000 86.332 137.4363
1647.740304 86.211 137.0861
1659.680509 86.091 136.7393
1671.707238 85.971 136.3881
1683.821118 85.850 136.0225
1696.022780 85.727 135.6315
1708.312860 85.602 135.2042
1720.692000 85.474 134.7293
1733.160843 85.343 134.1962
1745.720041 85.209 133.5948
1758.370248 85.070 132.9170
1771.112124 84.927 132.1598
1783.946332 84.780 131.3258
1796.873543 84.629 130.4210
1809.894429 84.473 129.4531
1823.009670 84.312 128.4310
1836.219950 84.147 127.3635
1849.525956 83.975 126.2597
1862.928384 83.798 125.1306
1876.427931 83.613 123.9916
1890.025301 83.421 122.8604
1903.721204 83.218 121.7538
1917.516352 83.005 120.6863
1931.411466 82.778 119.6697
1945.407270 82.539 118.7135
1959.504493 82.286 117.8277
1973.703870 82.018 117.0236
1988.006142 81.736 116.3102
2002.412054 81.437 115.6932
2016.922357 81.122 115.1758
2031.537808 80.791 114.7599
2046.259169 80.446 114.4464
2061.087206 80.088 114.2338
2076.022694 79.721 114.1192
2091.066410 79.347 114.1007
2106.219139 78.970 114.1801
2121.481671 78.596 114.3631
2136.854802 78.228 114.6591
2152.339333 77.873 115.0794
2167.936071 77.534 115.6367
2183.645829 77.217 116.3459
2199.469427 76.924 117.2238
2215.407689 76.657 118.2838
2231.461446 76.413 119.5332
2247.631536 76.191 120.9688
2263.918800 75.985 122.5771
2280.324089 75.794 124.3393
2296.848258 75.611 126.2330
2313.492167 75.435 128.2306
2330.256685 75.261 130.2984
2347.142685 75.087 132.3962
2364.151049 74.911 134.4764
2381.282662 74.732 136.4865
2398.538418 74.551 138.3771
2415.919216 74.372 140.1090
2433.425962 74.198 141.6537
2451.059570 74.034 142.9940
2468.820958 73.887 144.1271
2486.711052 73.762 145.0697
2504.730786 73.666 145.8558
2522.881098 73.600 146.5321
2541.162934 73.565 147.1483
2559.577248 73.557 147.7476
2578.125000 73.569 148.3599
2596.807157 73.593 149.0042
2615.624692 73.618 149.6878
2634.578586 73.636 150.4046
2653.669829 73.636 151.1329
2672.899414 73.611 151.8358
2692.268345 73.555 152.4650
2711.777632 73.463 152.9689
2731.428290 73.336 153.2968
2751.221345 73.172 153.4064
2771.157829 72.977 153.2748
2791.238781 72.755 152.9066
2811.465248 72.512 152.3369
2831.838284 72.256 151.6320
2852.358952 71.992 150.8854
2873.028321 71.723 150.2073
2893.847468 71.449 149.7139
2914.817480 71.170 149.5162
2935.939449 70.880 149.7078
2957.214476 70.569 150.3555
2978.643672 70.226 151.4931
3000.228152 69.839 153.1186
3021.969041 69.400 155.1998
3043.867475 68.900 157.6838
3065.924593 68.343 160.5126
3088.141547 67.735 163.6437
3110.519493 67.095 167.0694
3133.059600 66.450 170.8272
3155.763041 65.844 175.0042
3178.631001 65.333 179.7216
3201.664672 64.986 -174.9123
3224.865254 64.863 -168.8781
3248.233957 64.995 -162.3214
3271.771999 65.363 -155.5568
3295.480608 65.905 -148.9728
3319.361019 66.543 -142.9039
3343.414477 67.202 -137.5542
3367.642236 67.826 -133.0035
3392.045560 68.378 -129.2597
3416.625721 68.837 -126.3034
3441.383999 69.198 -124.1053
3466.321686 69.467 -122.6262
3491.440082 69.658 -121.8091
3516.740496 69.792 -121.5591
3542.224247 69.894 -121.7242
3567.892664 69.988 -122.0934
3593.747085 70.091 -122.4227
3619.788858 70.209 -122.4840
3646.019340 70.339 -122.1110
3672.439900 70.467 -121.2282
3699.051913 70.579 -119.8529
3725.856768 70.659 -118.0839
3752.855862 70.699 -116.0726
3780.050603 70.696 -113.9921
3807.442408 70.660 -112.0043
3835.032705 70.605 -110.2266
3862.822933 70.559 -108.6936
3890.814540 70.547 -107.3357
3919.008986 70.593 -105.9829
3947.407741 70.709 -104.4042
3976.012284 70.896 -102.3663
4004.824108 71.145 -99.6956
4033.844715 71.448 -96.3175
4063.075616 71.801 -92.2791
4092.518337 72.209 -87.7532
4122.174412 72.686 -83.0226
4152.045387 73.251 -78.4353
4182.132820 73.918 -74.3332
4212.438278 74.691 -70.9705
4242.963342 75.556 -68.4600
4273.709604 76.486 -66.7676
4304.678665 77.443 -65.7529
4335.872141 78.393 -65.2374
4367.291658 79.305 -65.0665
4398.938854 80.158 -65.1440
4430.815378 80.940 -65.4327
4462.922893 81.650 -65.9377
4495.263072 82.292 -66.6776
4527.837601 82.875 -67.6558
4560.648179 83.409 -68.8392
4593.696515 83.902 -70.1546
4626.984334 84.353 -71.5035
4660.513370 84.761 -72.7923
4694.285371 85.121 -73.9616
4728.302098 85.429 -75.0034
4762.565324 85.685 -75.9590
4797.076835 85.896 -76.8998
4831.838432 86.073 -77.9013
4866.851925 86.235 -79.0176
4902.119140 86.398 -80.2690
4937.641916 86.574 -81.6453
4973.422105 86.766 -83.1249
5009.461572 86.970 -84.6964
5045.762195 87.176 -86.3694
5082.325868 87.375 -88.1688
5119.154496 87.564 -90.1194
5156.250000 87.742 -92.2282
5193.614313 87.918 -94.4695
5231.249383 88.099 -96.7861
5269.157173 88.296 -99.1067
5307.339658 88.515 -101.3780
5345.798829 88.757 -103.5940
5384.536691 89.022 -105.8053
5423.555263 89.308 -108.1032
5462.856580 89.609 -110.5833
5502.442691 89.917 -113.3088
5542.315659 90.222 -116.2868
5582.477563 90.510 -119.4723
5622.930497 90.768 -122.7939
5663.676569 90.983 -126.1885
5704.717904 91.145 -129.6225
5746.056642 91.253 -133.0942
5787.694937 91.310 -136.6170
5829.634960 91.320 -140.1994
5871.878898 91.288 -143.8316
5914.428953 91.212 -147.4882
5957.287343 91.084 -151.1423
6000.456303 90.893 -154.7743
6043.938083 90.628 -158.3660
6087.734950 90.283 -161.8776
6131.849187 89.857 -165.2220
6176.283094 89.358 -168.2574
6221.038987 88.800 -170.8136
6266.119200 88.200 -172.7475
6311.526083 87.581 -174.0039
6357.262002 86.967 -174.6460
6403.329344 86.386 -174.8381
6449.730508 85.861 -174.7824
6496.467914 85.408 -174.6454
6543.543998 85.024 -174.5155
6590.961215 84.691 -174.4155
6638.722037 84.385 -174.3451
6686.828954 84.083 -174.3104
6735.284473 83.776 -174.3149
6784.091120 83.467 -174.3271
6833.251441 83.167 -174.2628
6882.767998 82.884 -174.0135
6932.643372 82.622 -173.5109
6982.880164 82.384 -172.7827
7033.480992 82.174 -171.9516
7084.448495 82.004 -171.1743
7135.785329 81.884 -170.5605
7187.494171 81.818 -170.1318
7239.577717 81.792 -169.8510
7292.038681 81.786 -169.6869
7344.879799 81.785 -169.6542
7398.103826 81.786 -169.7950
7451.713536 81.798 -170.1288
7505.711724 81.828 -170.6236
7560.101205 81.872 -171.2222
7614.884815 81.917 -171.8968
7670.065409 81.948 -172.6686
7725.645865 81.959 -173.5661
7781.629080 81.952 -174.5558
7838.017972 81.932 -175.5170
7894.815481 81.900 -176.2946
7952.024569 81.853 -176.7856
8009.648217 81.797 -176.9806
8067.689429 81.753 -176.9321
8126.151233 81.752 -176.7042
8185.036674 81.820 -176.3732
8244.348824 81.963 -176.0808
8304.090774 82.170 -176.0600
8364.265639 82.423 -176.5694
8424.876556 82.701 -177.7723
8485.926684 82.984 -179.6717
8547.419207 83.244 177.8410
8609.357330 83.454 174.8797
8671.744282 83.598 171.5146
8734.583316 83.668 167.8171
8797.877707 83.664 163.9199
8861.630756 83.584 159.9968
8925.845785 83.424 156.1832
8990.526143 83.184 152.5389
9055.675202 82.877 149.0992
9121.296357 82.528 145.9261
9187.393031 82.164 143.0602
9253.968668 81.806 140.4106
9321.026740 81.472 137.7386
9388.570742 81.173 134.7876
9456.604196 80.896 131.4265
9525.130648 80.606 127.6566
9594.153671 80.252 123.5263
9663.676863 79.798 119.1208
9733.703850 79.222 114.6430
9804.238280 78.512 110.4213
9875.283832 77.659 106.7789
9946.844210 76.659 103.9472
10018.923143 75.523 102.1866
10091.524390 74.282 101.9493
10164.651736 72.979 103.7839
10238.308993 71.661 107.9902
10312.500000 70.402 114.3561
10387.228626 69.313 122.2059
10462.498767 68.505 130.6561
10538.314345 68.028 138.7602
10614.679315 67.846 145.5663
10691.597657 67.889 150.4514
10769.073381 68.072 153.5151
10847.110526 68.307 155.4234
10925.713161 68.527 156.8280
11004.885382 68.730 158.0973
11084.631318 68.964 159.5227
11164.955126 69.266 161.4327
11245.860993 69.652 163.8955
11327.353138 70.137 166.4507
11409.435808 70.726 168.3067
11492.113283 71.358 168.8096
11575.389873 71.927 167.6853
11659.269920 72.350 165.0121
11743.757796 72.609 161.1926
11828.857906 72.722 156.7745
11914.574686 72.702 152.0710
12000.912606 72.554 147.1400
12087.876166 72.274 142.2155
12175.469900 71.859 137.8615
12263.698373 71.331 134.6359
12352.566187 70.784 132.8225
12442.077974 70.356 132.2584
12532.238400 70.134 132.0641
12623.052165 70.087 130.9728
12714.524005 70.100 128.3277
12806.658687 70.034 124.4453
12899.461015 69.786 120.0281
12992.935827 69.329 115.7815
13087.087996 68.707 112.4973
13181.922430 67.997 110.7310
13277.444074 67.289 110.3748
13373.657907 66.679 111.0584
13470.568945 66.221 112.5786
13568.182241 65.927 114.5472
13666.502883 65.798 116.3192
13765.535996 65.814 117.4139
13865.286744 65.906 117.3914
13965.760328 65.995 115.8237
14066.961984 66.019 112.9548
14168.896989 65.929 109.6057
14271.570658 65.714 106.5119
14374.988342 65.420 104.6372
14479.155433 65.115 105.1946
14584.077362 64.869 108.4786
14689.759598 64.747 113.4019
14796.207652 64.772 118.0140
14903.427072 64.916 120.3418
15011.423448 65.133 119.6418
15120.202410 65.378 116.6023
15229.769630 65.606 111.8727
15340.130819 65.790 105.8998
15451.291730 65.910 99.6510
15563.258160 65.953 93.9051
15676.035944 65.926 89.7666
15789.630962 65.845 90.2397
15904.049137 65.720 101.2564
16019.296433 65.573 130.4187
16135.378859 65.425 157.1202
16252.302465 65.288 166.1680
16370.073348 65.170 166.5640
16488.697648 65.079 164.4957
16608.181548 65.026 162.3322
16728.531278 65.021 161.5491
16849.753112 65.071 164.7568
16971.853368 65.171 173.3227
17094.838414 65.312 -174.6490
17218.714660 65.477 -164.3088
17343.488565 65.651 -159.1659
17469.166632 65.823 -158.4194
17595.755415 65.982 -160.3395
17723.261512 66.121 -164.0519
17851.691571 66.233 -168.6316
17981.052287 66.314 -173.6513
18111.350404 66.364 -178.7729
18242.592715 66.382 176.3765
18374.786062 66.370 171.8662
18507.937336 66.331 167.9412
18642.053479 66.269 164.5038
18777.141484 66.191 161.4681
18913.208391 66.103 158.7861
19050.261296 66.004 156.3391
19188.307342 65.898 154.2052
19327.353727 65.788 152.2727
19467.407699 65.683 150.5720
19608.476560 65.595 148.9949
19750.567664 65.532 147.4857
19893.688419 65.496 146.1576
20037.846286 65.482 145.2532
