Freq[Hz]  Imp[Ohm]  Phase[Deg]
5.00000      3.346     0.630
5.07273      3.346     0.633
5.14651      3.346     0.636
5.22137      3.346     0.641
5.29732      3.347     0.646
5.37437      3.347     0.652
5.45254      3.347     0.658
5.53185      3.347     0.664
5.61231      3.347     0.671
5.69394      3.348     0.677
5.77676      3.348     0.684
5.86079      3.348     0.691
5.94604      3.348     0.698
6.03252      3.348     0.705
6.12027      3.349     0.712
6.20929      3.349     0.719
6.29961      3.349     0.727
6.39124      3.349     0.735
6.48420      3.350     0.742
6.57851      3.350     0.750
6.67420      3.350     0.758
6.77128      3.350     0.766
6.86977      3.351     0.775
6.96969      3.351     0.783
7.07107      3.351     0.792
7.17392      3.352     0.800
7.27827      3.352     0.809
7.38413      3.352     0.818
7.49154      3.353     0.827
7.60050      3.353     0.836
7.71105      3.353     0.845
7.82321      3.354     0.855
7.93701      3.354     0.864
8.05245      3.355     0.874
8.16958      3.355     0.883
8.28841      3.355     0.893
8.40896      3.356     0.903
8.53128      3.356     0.913
8.65537      3.357     0.924
8.78126      3.357     0.934
8.90899      3.358     0.944
9.03857      3.358     0.955
9.17004      3.359     0.965
9.30342      3.359     0.976
9.43874      3.360     0.987
9.57603      3.360     0.997
9.71532      3.361     1.008
9.85663      3.361     1.019
10.0000      3.362     1.031
10.1455      3.363     1.042
10.2930      3.363     1.053
10.4427      3.364     1.064
10.5946      3.365     1.076
10.7487      3.365     1.087
10.9051      3.366     1.098
11.0637      3.367     1.110
11.2246      3.368     1.121
11.3879      3.368     1.133
11.5535      3.369     1.144
11.7216      3.370     1.156
11.8921      3.371     1.168
12.0650      3.372     1.179
12.2405      3.373     1.191
12.4186      3.374     1.202
12.5992      3.375     1.213
12.7825      3.376     1.225
12.9684      3.377     1.236
13.1570      3.378     1.247
13.3484      3.379     1.258
13.5426      3.380     1.269
13.7395      3.381     1.280
13.9394      3.382     1.290
14.1421      3.384     1.301
14.3478      3.385     1.311
14.5565      3.386     1.321
14.7683      3.387     1.330
14.9831      3.389     1.340
15.2010      3.390     1.348
15.4221      3.392     1.357
15.6464      3.393     1.365
15.8740      3.395     1.372
16.1049      3.396     1.379
16.3392      3.398     1.386
16.5768      3.400     1.391
16.8179      3.401     1.396
17.0626      3.403     1.400
17.3107      3.405     1.403
17.5625      3.407     1.405
17.8180      3.409     1.406
18.0771      3.411     1.405
18.3401      3.413     1.402
18.6068      3.415     1.398
18.8775      3.417     1.391
19.1521      3.419     1.381
19.4306      3.422     1.367
19.7133      3.424     1.346
20.0000      3.426     1.318
20.2909      3.428     1.282
20.5860      3.428     1.243
20.8855      3.428     1.212
21.1893      3.427     1.194
21.4975      3.425     1.193
21.8102      3.424     1.214
22.1274      3.424     1.250
22.4492      3.426     1.295
22.7758      3.430     1.334
23.1071      3.435     1.347
23.4432      3.441     1.331
23.7841      3.446     1.288
24.1301      3.449     1.223
24.4811      3.451     1.154
24.8372      3.451     1.095
25.1984      3.451     1.045
25.5649      3.451     1.003
25.9368      3.451     0.966
26.3141      3.451     0.932
26.6968      3.451     0.899
27.0851      3.451     0.867
27.4791      3.451     0.836
27.8788      3.451     0.804
28.2843      3.451     0.770
28.6957      3.451     0.732
29.1131      3.451     0.687
29.5365      3.451     0.634
29.9661      3.449     0.576
30.4020      3.445     0.527
30.8442      3.439     0.505
31.2929      3.434     0.513
31.7480      3.429     0.551
32.2098      3.425     0.611
32.6783      3.424     0.678
33.1536      3.423     0.741
33.6359      3.424     0.804
34.1251      3.425     0.870
34.6215      3.427     0.936
35.1250      3.431     0.992
35.6359      3.436     1.020
36.1543      3.441     1.019
36.6802      3.446     0.991
37.2137      3.450     0.942
37.7550      3.451     0.893
38.3041      3.451     0.851
38.8613      3.451     0.819
39.4265      3.451     0.795
40.0000      3.451     0.774
40.5818      3.451     0.757
41.1721      3.451     0.741
41.7710      3.451     0.727
42.3785      3.451     0.714
42.9949      3.451     0.703
43.6203      3.451     0.692
44.2548      3.451     0.682
44.8985      3.451     0.673
45.5515      3.451     0.664
46.2141      3.451     0.656
46.8863      3.451     0.648
47.5683      3.451     0.641
48.2602      3.451     0.634
48.9621      3.451     0.627
49.6743      3.451     0.621
50.3968      3.451     0.615
51.1299      3.451     0.610
51.8736      3.451     0.604
52.6281      3.451     0.599
53.3936      3.451     0.594
54.1702      3.451     0.590
54.9581      3.451     0.586
55.7575      3.451     0.581
56.5685      3.451     0.578
57.3914      3.451     0.574
58.2261      3.451     0.570
59.0730      3.451     0.567
59.9323      3.451     0.564
60.8040      3.451     0.561
61.6884      3.451     0.558
62.5857      3.451     0.556
63.4960      3.451     0.553
64.4196      3.451     0.551
65.3566      3.451     0.549
66.3073      3.451     0.547
67.2717      3.451     0.545
68.2502      3.451     0.543
69.2429      3.451     0.542
70.2501      3.451     0.541
71.2719      3.451     0.539
72.3086      3.451     0.538
73.3603      3.451     0.538
74.4274      3.451     0.537
75.5099      3.451     0.536
76.6083      3.451     0.536
77.7226      3.451     0.535
78.8531      3.451     0.535
80.0000      3.451     0.535
81.1636      3.451     0.535
82.3442      3.451     0.535
83.5419      3.451     0.536
84.7570      3.451     0.536
85.9899      3.451     0.537
87.2406      3.451     0.538
88.5096      3.451     0.538
89.7970      3.451     0.540
91.1031      3.451     0.541
92.4282      3.451     0.542
93.7726      3.451     0.543
95.1366      3.451     0.545
96.5204      3.451     0.547
97.9243      3.451     0.549
99.3486      3.451     0.551
100.794      3.451     0.553
102.260      3.451     0.555
103.747      3.451     0.557
105.256      3.451     0.560
106.787      3.451     0.563
108.340      3.451     0.565
109.916      3.451     0.568
111.515      3.451     0.572
113.137      3.451     0.575
114.783      3.451     0.578
116.452      3.451     0.582
118.146      3.451     0.586
119.865      3.451     0.590
121.608      3.451     0.594
123.377      3.451     0.598
125.171      3.451     0.602
126.992      3.451     0.607
128.839      3.451     0.611
130.713      3.451     0.616
132.615      3.451     0.621
134.543      3.451     0.627
136.500      3.451     0.632
138.486      3.451     0.638
140.500      3.451     0.644
142.544      3.451     0.650
144.617      3.451     0.656
146.721      3.451     0.662
148.855      3.451     0.669
151.020      3.451     0.675
153.217      3.451     0.683
155.445      3.451     0.690
157.706      3.451     0.697
160.000      3.451     0.705
162.327      3.451     0.713
164.688      3.451     0.721
167.084      3.451     0.730
169.514      3.451     0.738
171.980      3.451     0.747
174.481      3.451     0.756
177.019      3.451     0.766
179.594      3.451     0.776
182.206      3.451     0.786
184.856      3.451     0.796
187.545      3.451     0.807
190.273      3.451     0.818
193.041      3.451     0.830
195.849      3.451     0.842
198.697      3.451     0.854
201.587      3.451     0.867
204.520      3.451     0.880
207.494      3.451     0.893
210.512      3.451     0.907
213.574      3.451     0.922
216.681      3.451     0.937
219.833      3.451     0.953
223.030      3.451     0.969
226.274      3.451     0.986
229.565      3.451     1.003
232.905      3.451     1.022
236.292      3.451     1.041
239.729      3.451     1.060
243.216      3.451     1.081
246.754      3.451     1.103
250.343      3.451     1.126
253.984      3.451     1.150
257.678      3.451     1.175
261.426      3.451     1.202
265.229      3.451     1.231
269.087      3.451     1.262
273.001      3.451     1.295
276.972      3.451     1.332
281.000      3.451     1.372
285.088      3.451     1.418
289.234      3.451     1.474
293.441      3.452     1.540
297.709      3.454     1.616
302.040      3.458     1.689
306.433      3.463     1.740
310.890      3.468     1.764
315.412      3.474     1.761
320.000      3.478     1.736
324.655      3.479     1.708
329.377      3.480     1.692
334.168      3.480     1.686
339.028      3.480     1.692
343.959      3.480     1.705
348.962      3.480     1.724
354.038      3.480     1.749
359.188      3.480     1.779
364.412      3.480     1.815
369.713      3.480     1.858
375.090      3.480     1.909
380.546      3.480     1.973
386.081      3.480     2.052
391.697      3.482     2.144
397.394      3.486     2.239
403.175      3.491     2.319
409.039      3.497     2.383
414.989      3.503     2.433
421.025      3.508     2.473
427.149      3.514     2.513
433.362      3.520     2.546
439.665      3.525     2.573
446.060      3.531     2.597
452.548      3.537     2.616
459.131      3.542     2.639
465.809      3.549     2.660
472.584      3.554     2.681
479.458      3.560     2.705
486.432      3.566     2.736
493.507      3.573     2.784
500.686      3.582     2.837
507.968      3.594     2.877
515.357      3.609     2.881
522.853      3.624     2.830
530.458      3.637     2.739
538.174      3.649     2.624
546.002      3.659     2.493
553.943      3.668     2.359
562.001      3.677     2.226
570.175      3.686     2.083
578.469      3.695     1.916
586.883      3.702     1.732
595.419      3.708     1.535
604.080      3.712     1.328
612.866      3.713     1.128
621.780      3.714     0.940
630.824      3.714     0.764
640.000      3.714     0.595
649.309      3.714     0.427
658.753      3.714     0.252
668.335      3.714     0.067
678.056      3.712    -0.132
687.919      3.708    -0.338
697.925      3.701    -0.532
708.077      3.693    -0.707
718.376      3.682    -0.853
728.825      3.672    -0.960
739.426      3.663    -1.046
750.181      3.653    -1.113
761.093      3.644    -1.159
772.163      3.636    -1.196
783.394      3.629    -1.230
794.789      3.621    -1.251
806.349      3.613    -1.258
818.078      3.607    -1.257
829.977      3.601    -1.252
842.050      3.597    -1.245
854.298      3.593    -1.253
866.724      3.589    -1.273
879.330      3.583    -1.287
892.120      3.577    -1.294
905.097      3.571    -1.290
918.262      3.566    -1.275
931.618      3.560    -1.257
945.169      3.554    -1.226
958.917      3.548    -1.180
972.864      3.543    -1.116
987.015      3.539    -1.037
1001.37      3.538    -0.959
1015.94      3.537    -0.894
1030.71      3.537    -0.841
1045.71      3.537    -0.800
1060.92      3.537    -0.765
1076.35      3.537    -0.735
1092.00      3.537    -0.709
1107.89      3.537    -0.687
1124.00      3.537    -0.667
1140.35      3.537    -0.649
1156.94      3.537    -0.632
1173.77      3.537    -0.618
1190.84      3.537    -0.605
1208.16      3.537    -0.593
1225.73      3.537    -0.582
1243.56      3.537    -0.572
1261.65      3.537    -0.563
1280.00      3.537    -0.555
1298.62      3.537    -0.547
1317.51      3.537    -0.540
1336.67      3.537    -0.532
1356.11      3.537    -0.525
1375.84      3.537    -0.518
1395.85      3.537    -0.510
1416.15      3.537    -0.501
1436.75      3.537    -0.490
1457.65      3.537    -0.477
1478.85      3.537    -0.458
1500.36      3.537    -0.432
1522.19      3.538    -0.398
1544.33      3.541    -0.363
1566.79      3.546    -0.343
1589.58      3.551    -0.351
1612.70      3.557    -0.390
1636.16      3.562    -0.458
1659.95      3.564    -0.545
1684.10      3.566    -0.634
1708.60      3.566    -0.722
1733.45      3.565    -0.812
1758.66      3.564    -0.907
1784.24      3.561    -1.002
1810.19      3.557    -1.082
1836.52      3.551    -1.138
1863.24      3.546    -1.170
1890.34      3.541    -1.184
1917.83      3.538    -1.195
1945.73      3.535    -1.218
1974.03      3.531    -1.247
2002.74      3.525    -1.262
2031.87      3.520    -1.257
2061.43      3.514    -1.228
2091.41      3.511    -1.181
2121.83      3.509    -1.133
2152.69      3.508    -1.099
2184.01      3.508    -1.081
2215.77      3.508    -1.081
2248.00      3.507    -1.097
2280.70      3.506    -1.125
2313.87      3.502    -1.152
2347.53      3.496    -1.156
2381.68      3.491    -1.135
2416.32      3.486    -1.087
2451.46      3.482    -1.018
2487.12      3.480    -0.947
2523.30      3.480    -0.886
2560.00      3.480    -0.836
2597.24      3.480    -0.794
2635.01      3.480    -0.759
2673.34      3.480    -0.727
2712.23      3.480    -0.698
2751.68      3.480    -0.671
2791.70      3.480    -0.647
2832.31      3.480    -0.624
2873.50      3.480    -0.602
2915.30      3.480    -0.581
2957.70      3.480    -0.562
3000.72      3.480    -0.543
3044.37      3.480    -0.526
3088.65      3.480    -0.509
3133.58      3.480    -0.493
3179.16      3.480    -0.477
3225.40      3.480    -0.462
3272.31      3.480    -0.447
3319.91      3.480    -0.433
3368.20      3.480    -0.419
3417.19      3.480    -0.406
3466.89      3.480    -0.393
3517.32      3.480    -0.380
3568.48      3.480    -0.368
3620.39      3.480    -0.356
3673.05      3.480    -0.344
3726.47      3.480    -0.333
3780.67      3.480    -0.321
3835.67      3.480    -0.310
3891.46      3.480    -0.299
3948.06      3.480    -0.289
4005.49      3.480    -0.278
4063.75      3.480    -0.268
4122.86      3.480    -0.258
4182.82      3.480    -0.248
4243.66      3.480    -0.238
4305.39      3.480    -0.228
4368.01      3.480    -0.218
4431.55      3.480    -0.209
4496.01      3.480    -0.199
4561.40      3.480    -0.190
4627.75      3.480    -0.181
4695.06      3.480    -0.171
4763.35      3.480    -0.162
4832.64      3.480    -0.153
4902.93      3.480    -0.144
4974.24      3.480    -0.135
5046.60      3.480    -0.126
5120.00      3.480    -0.117
5194.47      3.480    -0.108
5270.03      3.480    -0.099
5346.68      3.480    -0.090
5424.45      3.480    -0.082
5503.35      3.480    -0.073
5583.40      3.480    -0.064
5664.61      3.480    -0.055
5747.01      3.480    -0.046
5830.60      3.480    -0.036
5915.41      3.480    -0.027
6001.45      3.480    -0.018
6088.74      3.480    -0.009
6177.30      3.480     0.001
6267.15      3.480     0.010
6358.31      3.480     0.020
6450.80      3.480     0.030
6544.62      3.480     0.040
6639.82      3.480     0.050
6736.40      3.480     0.060
6834.38      3.480     0.070
6933.79      3.480     0.081
7034.64      3.480     0.092
7136.96      3.480     0.103
7240.77      3.480     0.115
7346.09      3.480     0.127
7452.94      3.480     0.139
7561.35      3.480     0.152
7671.33      3.480     0.165
7782.91      3.480     0.179
7896.12      3.480     0.193
8010.97      3.480     0.208
8127.49      3.480     0.224
8245.71      3.480     0.241
8365.65      3.480     0.259
8487.33      3.480     0.278
8610.78      3.480     0.298
8736.03      3.480     0.321
8863.09      3.480     0.345
8992.01      3.480     0.372
9122.80      3.480     0.402
9255.50      3.480     0.437
9390.12      3.480     0.478
9526.70      3.480     0.530
9665.27      3.480     0.595
9805.86      3.482     0.672
9948.49      3.486     0.753
10093.2      3.492     0.819
10240.0      3.498     0.866
10388.9      3.507     0.885
10540.1      3.516     0.862
10693.4      3.523     0.808
10848.9      3.529     0.734
11006.7      3.534     0.644
11166.8      3.536     0.552
11329.2      3.537     0.470
11494.0      3.537     0.399
11661.2      3.537     0.338
11830.8      3.537     0.283
12002.9      3.537     0.230
12177.5      3.537     0.179
12354.6      3.537     0.125
12534.3      3.537     0.065
12716.6      3.536    -0.002
12901.6      3.535    -0.077
13089.2      3.531    -0.147
13279.6      3.525    -0.191
13472.8      3.520    -0.207
13668.8      3.514    -0.194
13867.6      3.510    -0.156
14069.3      3.509    -0.114
14273.9      3.508    -0.079
14481.5      3.508    -0.054
14692.2      3.508    -0.038
14905.9      3.508    -0.025
15122.7      3.508    -0.016
15342.7      3.508    -0.008
15565.8      3.508    -0.002
15792.2      3.508     0.003
16021.9      3.508     0.007
16255.0      3.508     0.010
16491.4      3.508     0.013
16731.3      3.508     0.016
16974.7      3.508     0.018
17221.6      3.508     0.019
17472.1      3.508     0.021
17726.2      3.508     0.022
17984.0      3.508     0.023
18245.6      3.508     0.024
18511.0      3.508     0.025
18780.2      3.508     0.025
19053.4      3.508     0.026
19330.5      3.508     0.026
19611.7      3.508     0.026
19897.0      3.508     0.027
20186.4      3.508     0.027
20480.0      3.508     0.027
20777.9      3.508     0.027
21080.1      3.508     0.027
21386.7      3.508     0.027
21697.8      3.508     0.027
22013.4      3.508     0.027
22333.6      3.508     0.027
22658.4      3.508     0.027
22988.0      3.508     0.026
23322.4      3.508     0.026
23661.6      3.508     0.026
24005.8      3.508     0.026
24355.0      3.508     0.026
24709.2      3.508     0.026
25068.6      3.508     0.025
25433.2      3.508     0.025
25803.2      3.508     0.025
26178.5      3.508     0.025
26559.3      3.508     0.024
26945.6      3.508     0.024
27337.5      3.508     0.024
27735.2      3.508     0.024
28138.6      3.508     0.023
28547.9      3.508     0.023
28963.1      3.508     0.023
29384.4      3.508     0.023
29811.8      3.508     0.022
30245.4      3.508     0.022
30685.3      3.508     0.022
31131.7      3.508     0.021
31584.5      3.508     0.021
32043.9      3.508     0.021
32510.0      3.508     0.021
32982.8      3.508     0.020
33462.6      3.508     0.020
33949.3      3.508     0.020
34443.1      3.508     0.020
34944.1      3.508     0.019
35452.4      3.508     0.019
35968.0      3.508     0.019
36491.2      3.508     0.019
37022.0      3.508     0.018
37560.5      3.508     0.018
38106.8      3.508     0.018
38661.1      3.508     0.018
39223.4      3.508     0.018
39793.9      3.508     0.017
