* Measurement data measured by REW V5.31.3
* Source: Microphone (Conexant ISST Audio), MICROPHONE (Master Volume), R, volume: 0.500
* Format: 256k Log Swept Sine, 1 sweep at 0.0 dBFS with no timing reference
* Dated: Aug 8, 2025 2:14:19 PM
* REW Settings:
*  C-weighting compensation: Off
*  Target level: 75.0 dB
* Note: 
* Measurement: L Woofer + Tweeter Inv Aug 8
* Smoothing: 1/12 octave
* Frequency Step: 96 ppo
* Start Frequency: 20.141602 Hz
*
* Freq(Hz) SPL(dB) Phase(degrees)
20.141602 69.996 139.8763
20.287556 69.983 139.8389
20.434568 69.962 139.7828
20.582645 69.935 139.7115
20.731796 69.903 139.6265
20.882027 69.865 139.5275
21.033346 69.823 139.4124
21.185763 69.777 139.2787
21.339284 69.729 139.1234
21.493917 69.679 138.9443
21.649671 69.629 138.7400
21.806553 69.578 138.5101
21.964572 69.528 138.2556
22.123737 69.481 137.9787
22.284054 69.436 137.6829
22.445534 69.396 137.3725
22.608183 69.360 137.0526
22.772012 69.329 136.7283
22.937027 69.304 136.4046
23.103238 69.284 136.0861
23.270654 69.267 135.7761
23.439282 69.252 135.4768
23.609133 69.237 135.1889
23.780215 69.222 134.9117
23.952536 69.207 134.6428
24.126106 69.194 134.3788
24.300934 69.182 134.1155
24.477028 69.173 133.8481
24.654399 69.168 133.5720
24.833055 69.166 133.2832
25.013005 69.168 132.9789
25.194260 69.174 132.6575
25.376828 69.182 132.3198
25.560719 69.193 131.9682
25.745942 69.208 131.6073
25.932508 69.227 131.2434
26.120426 69.251 130.8839
26.309705 69.281 130.5369
26.500356 69.318 130.2103
26.692388 69.360 129.9111
26.885812 69.405 129.6444
27.080638 69.452 129.4133
27.276876 69.499 129.2180
27.474535 69.544 129.0562
27.673627 69.585 128.9225
27.874161 69.622 128.8092
28.076149 69.652 128.7068
28.279600 69.676 128.6041
28.484526 69.694 128.4896
28.690937 69.707 128.3520
28.898843 69.715 128.1810
29.108256 69.720 127.9684
29.319186 69.724 127.7089
29.531645 69.729 127.4007
29.745644 69.736 127.0458
29.961193 69.749 126.6504
30.178304 69.768 126.2244
30.396989 69.794 125.7810
30.617258 69.829 125.3351
30.839123 69.871 124.9022
31.062596 69.920 124.4967
31.287688 69.975 124.1304
31.514412 70.032 123.8112
31.742778 70.090 123.5422
31.972800 70.147 123.3209
32.204488 70.201 123.1404
32.437855 70.250 122.9891
32.672913 70.294 122.8526
32.909674 70.333 122.7154
33.148151 70.369 122.5626
33.388356 70.403 122.3823
33.630302 70.437 122.1674
33.874001 70.474 121.9171
34.119466 70.514 121.6377
34.366710 70.558 121.3419
34.615745 70.606 121.0472
34.866585 70.656 120.7723
35.119243 70.708 120.5344
35.373731 70.760 120.3446
35.630064 70.808 120.2058
35.888254 70.849 120.1106
36.148315 70.882 120.0423
36.410261 70.906 119.9761
36.674104 70.920 119.8839
36.939860 70.928 119.7380
37.207542 70.933 119.5175
37.477163 70.940 119.2127
37.748738 70.954 118.8287
38.022281 70.978 118.3858
38.297806 71.013 117.9160
38.575327 71.057 117.4560
38.854860 71.109 117.0383
39.136419 71.164 116.6826
39.420017 71.216 116.3906
39.705671 71.262 116.1452
39.993395 71.299 115.9150
40.283203 71.329 115.6629
40.575112 71.355 115.3579
40.869136 71.384 114.9870
41.165290 71.424 114.5635
41.463591 71.479 114.1293
41.764053 71.552 113.7466
42.066693 71.638 113.4815
42.371525 71.727 113.3831
42.678567 71.808 113.4654
42.987834 71.868 113.6980
43.299341 71.895 114.0082
43.613106 71.888 114.2927
43.929145 71.849 114.4381
44.247473 71.794 114.3517
44.568109 71.743 113.9966
44.891068 71.721 113.4235
45.216367 71.744 112.7795
45.544023 71.818 112.2780
45.874054 71.926 112.1332
46.206476 72.037 112.4871
46.541307 72.109 113.3604
46.878565 72.104 114.6388
47.218266 71.988 116.0769
47.560429 71.745 117.3023
47.905072 71.377 117.8069
48.252212 70.921 116.9440
48.601867 70.462 114.0070
48.954056 70.140 108.5687
49.308798 70.105 101.1693
49.666109 70.424 93.6326
50.026010 71.025 87.9562
50.388520 71.752 84.9629
50.753656 72.461 84.3630
51.121437 73.061 85.4619
51.491884 73.509 87.5775
51.865016 73.793 90.1514
52.240851 73.925 92.7481
52.619410 73.931 95.0392
53.000712 73.849 96.8027
53.384777 73.724 97.9368
53.771625 73.601 98.4742
54.161276 73.513 98.5691
54.553751 73.475 98.4407
54.949070 73.483 98.2912
55.347254 73.516 98.2382
55.748323 73.552 98.2961
56.152298 73.578 98.4036
56.559201 73.591 98.4734
56.969052 73.595 98.4396
57.381873 73.601 98.2852
57.797686 73.618 98.0436
58.216512 73.647 97.7749
58.638373 73.685 97.5320
59.063291 73.725 97.3344
59.491288 73.760 97.1633
59.922386 73.788 96.9756
60.356608 73.811 96.7294
60.793977 73.837 96.4057
61.234515 73.871 96.0182
61.678246 73.917 95.6063
62.125192 73.975 95.2171
62.575377 74.041 94.8854
63.028824 74.108 94.6234
63.485557 74.172 94.4210
63.945599 74.231 94.2555
64.408975 74.282 94.1025
64.875709 74.328 93.9424
65.345825 74.369 93.7622
65.819348 74.407 93.5534
66.296302 74.444 93.3104
66.776713 74.481 93.0309
67.260604 74.521 92.7179
67.748002 74.566 92.3825
68.238932 74.617 92.0424
68.733420 74.673 91.7176
69.231490 74.732 91.4235
69.733170 74.792 91.1659
70.238485 74.850 90.9392
70.747463 74.904 90.7301
71.260128 74.954 90.5230
71.776508 75.001 90.3065
72.296630 75.046 90.0761
72.820521 75.090 89.8336
73.348209 75.134 89.5826
73.879720 75.178 89.3240
74.415083 75.220 89.0530
74.954326 75.262 88.7621
75.497475 75.305 88.4456
76.044561 75.351 88.1069
76.595612 75.402 87.7595
77.150655 75.458 87.4235
77.709720 75.517 87.1160
78.272837 75.576 86.8430
78.840034 75.633 86.5967
79.411342 75.688 86.3602
79.986789 75.740 86.1169
80.566406 75.791 85.8583
81.150224 75.845 85.5851
81.738272 75.901 85.3029
82.330581 75.960 85.0155
82.927182 76.019 84.7210
83.528107 76.079 84.4144
84.133386 76.139 84.0931
84.743051 76.199 83.7616
85.357134 76.261 83.4304
85.975667 76.324 83.1119
86.598682 76.388 82.8143
87.226212 76.453 82.5380
87.858289 76.518 82.2778
88.494946 76.584 82.0266
89.136217 76.651 81.7788
89.782135 76.720 81.5323
90.432733 76.789 81.2863
91.088046 76.857 81.0387
91.748108 76.924 80.7855
92.412952 76.989 80.5213
93.082615 77.051 80.2415
93.757130 77.111 79.9454
94.436533 77.169 79.6356
95.120859 77.229 79.3173
95.810144 77.289 78.9958
96.504423 77.350 78.6751
97.203734 77.413 78.3569
97.908112 77.476 78.0404
98.617595 77.537 77.7227
99.332219 77.596 77.4000
100.052021 77.653 77.0697
100.777039 77.709 76.7329
101.507311 77.765 76.3955
102.242875 77.822 76.0661
102.983769 77.878 75.7514
103.730032 77.934 75.4516
104.481702 77.987 75.1604
105.238820 78.039 74.8692
106.001424 78.090 74.5732
106.769554 78.141 74.2741
107.543250 78.192 73.9775
108.322553 78.243 73.6871
109.107503 78.292 73.4000
109.898141 78.339 73.1079
110.694508 78.386 72.8038
111.496646 78.433 72.4878
112.304596 78.481 72.1668
113.118402 78.529 71.8481
113.938104 78.578 71.5333
114.763747 78.626 71.2176
115.595372 78.675 70.8956
116.433024 78.724 70.5659
117.276746 78.776 70.2313
118.126581 78.831 69.8960
118.982575 78.888 69.5632
119.844772 78.949 69.2354
120.713217 79.011 68.9143
121.587954 79.072 68.5995
122.469031 79.132 68.2874
123.356492 79.189 67.9735
124.250384 79.242 67.6543
125.150753 79.293 67.3283
126.057647 79.342 66.9966
126.971113 79.390 66.6617
127.891198 79.437 66.3269
128.817950 79.482 65.9944
129.751418 79.526 65.6643
130.691651 79.567 65.3359
131.638696 79.604 65.0085
132.592604 79.637 64.6793
133.553425 79.664 64.3428
134.521208 79.687 63.9939
135.496004 79.706 63.6319
136.477864 79.722 63.2617
137.466839 79.735 62.8893
138.462981 79.743 62.5161
139.466340 79.747 62.1341
140.476971 79.745 61.7277
141.494925 79.738 61.2777
142.520256 79.729 60.7600
143.553016 79.726 60.1469
144.593260 79.736 59.4210
145.641043 79.772 58.5889
146.696418 79.844 57.6967
147.759441 79.958 56.8692
148.830166 80.105 56.3121
149.908651 80.256 56.1876
150.994951 80.373 56.4580
152.089123 80.438 56.8988
153.191223 80.457 57.2712
154.301310 80.450 57.4539
155.419441 80.439 57.4362
156.545674 80.435 57.2549
157.680069 80.445 56.9617
158.822683 80.471 56.6057
159.973578 80.509 56.2200
161.132813 80.557 55.8231
162.300447 80.612 55.4279
163.476543 80.671 55.0412
164.661162 80.733 54.6645
165.854364 80.796 54.2963
167.056213 80.859 53.9323
168.266772 80.921 53.5677
169.486102 80.983 53.2001
170.714268 81.044 52.8305
171.951334 81.103 52.4602
173.197364 81.159 52.0891
174.452424 81.213 51.7166
175.716578 81.263 51.3431
176.989893 81.310 50.9708
178.272434 81.355 50.6014
179.564270 81.398 50.2352
180.865467 81.439 49.8699
182.176092 81.479 49.5028
183.496216 81.519 49.1329
184.825905 81.560 48.7609
186.165229 81.603 48.3901
187.514259 81.648 48.0249
188.873065 81.695 47.6673
190.241717 81.743 47.3148
191.620287 81.792 46.9625
193.008847 81.839 46.6070
194.407468 81.886 46.2473
195.816225 81.930 45.8857
197.235190 81.972 45.5244
198.664438 82.011 45.1625
200.104042 82.049 44.7955
201.554078 82.087 44.4199
203.014622 82.126 44.0361
204.485750 82.168 43.6485
205.967538 82.213 43.2633
207.460064 82.261 42.8851
208.963405 82.309 42.5154
210.477640 82.356 42.1521
212.002848 82.402 41.7910
213.539108 82.447 41.4287
215.086500 82.491 41.0645
216.645105 82.536 40.6980
218.215005 82.583 40.3291
219.796281 82.631 39.9578
221.389015 82.681 39.5854
222.993292 82.732 39.2141
224.609193 82.782 38.8461
226.236804 82.830 38.4819
227.876209 82.875 38.1202
229.527494 82.915 37.7582
231.190745 82.950 37.3934
232.866048 82.982 37.0248
234.553491 83.009 36.6512
236.253163 83.033 36.2687
237.965150 83.055 35.8693
239.689544 83.074 35.4421
241.426433 83.094 34.9761
243.175909 83.118 34.4647
244.938062 83.148 33.9132
246.712984 83.189 33.3528
248.500768 83.239 32.8477
250.301507 83.293 32.4717
252.115295 83.337 32.2427
253.942226 83.364 32.1007
255.782396 83.374 31.9710
257.635901 83.372 31.8086
259.502837 83.363 31.5994
261.383301 83.350 31.3462
263.277392 83.338 31.0584
265.185209 83.327 30.7463
267.106850 83.318 30.4199
269.042417 83.310 30.0881
270.992009 83.305 29.7576
272.955729 83.301 29.4319
274.933678 83.297 29.1123
276.925961 83.294 28.8000
278.932681 83.291 28.4950
280.953942 83.287 28.1955
282.989850 83.284 27.8974
285.040511 83.281 27.5968
287.106032 83.280 27.2915
289.186521 83.281 26.9821
291.282086 83.287 26.6721
293.392836 83.298 26.3659
295.518881 83.314 26.0668
297.660333 83.333 25.7760
299.817302 83.356 25.4925
301.989902 83.383 25.2150
304.178245 83.413 24.9432
306.382446 83.447 24.6775
308.602620 83.486 24.4174
310.838882 83.530 24.1613
313.091348 83.579 23.9079
315.360137 83.634 23.6575
317.645367 83.693 23.4109
319.947156 83.755 23.1683
322.265625 83.819 22.9293
324.600895 83.883 22.6940
326.953086 83.946 22.4637
329.322323 84.007 22.2393
331.708729 84.066 22.0203
334.112427 84.122 21.8047
336.533543 84.175 21.5903
338.972204 84.226 21.3755
341.428536 84.274 21.1581
343.902668 84.321 20.9348
346.394729 84.367 20.7039
348.904848 84.415 20.4705
351.433156 84.466 20.2470
353.979786 84.519 20.0438
356.544869 84.573 19.8605
359.128540 84.626 19.6900
361.730934 84.679 19.5247
364.352185 84.729 19.3595
366.992431 84.777 19.1916
369.651810 84.825 19.0207
372.330459 84.873 18.8484
375.028519 84.922 18.6765
377.746130 84.974 18.5055
380.483434 85.029 18.3355
383.240574 85.087 18.1669
386.017693 85.148 17.9999
388.814937 85.211 17.8339
391.632450 85.276 17.6673
394.470380 85.340 17.4996
397.328875 85.404 17.3303
400.208084 85.467 17.1591
403.108157 85.529 16.9860
406.029245 85.592 16.8116
408.971500 85.656 16.6365
411.935076 85.720 16.4610
414.920127 85.785 16.2851
417.926810 85.852 16.1078
420.955280 85.919 15.9276
424.005695 85.986 15.7423
427.078215 86.054 15.5498
430.173000 86.123 15.3475
433.290211 86.192 15.1322
436.430010 86.261 14.8991
439.592562 86.331 14.6409
442.778031 86.401 14.3513
445.986583 86.475 14.0318
449.218386 86.551 13.6990
452.473607 86.630 13.3801
455.752418 86.709 13.0901
459.054987 86.785 12.8220
462.381489 86.858 12.5599
465.732096 86.928 12.2910
469.106983 86.998 12.0087
472.506325 87.069 11.7120
475.930301 87.142 11.4031
479.379088 87.218 11.0840
482.852867 87.299 10.7559
486.351817 87.385 10.4181
489.876123 87.478 10.0690
493.425968 87.580 9.7062
497.001536 87.692 9.3272
500.603014 87.814 8.9309
504.230589 87.946 8.5170
507.884452 88.086 8.0863
511.564792 88.229 7.6401
515.271802 88.372 7.1791
519.005673 88.510 6.7031
522.766602 88.641 6.2117
526.554785 88.764 5.7058
530.370418 88.879 5.1880
534.213700 88.986 4.6626
538.084833 89.086 4.1345
541.984018 89.180 3.6091
545.911457 89.269 3.0892
549.867357 89.352 2.5689
553.851922 89.431 2.0322
557.865362 89.507 1.4654
561.907884 89.583 0.8667
565.979700 89.662 0.2418
570.081022 89.743 -0.4025
574.212064 89.829 -1.0612
578.373042 89.918 -1.7315
582.564171 90.010 -2.4128
586.785671 90.103 -3.1059
591.037762 90.198 -3.8115
595.320665 90.292 -4.5300
599.634604 90.384 -5.2609
603.979804 90.474 -6.0032
608.356491 90.562 -6.7556
612.764893 90.647 -7.5173
617.205240 90.731 -8.2887
621.677763 90.814 -9.0701
626.182696 90.898 -9.8622
630.720274 90.982 -10.6660
635.290733 91.066 -11.4828
639.894312 91.150 -12.3151
644.531250 91.233 -13.1659
649.201789 91.315 -14.0359
653.906173 91.395 -14.9212
658.644647 91.473 -15.8160
663.417457 91.549 -16.7167
668.224854 91.624 -17.6215
673.067086 91.699 -18.5293
677.944408 91.773 -19.4406
682.857073 91.848 -20.3571
687.805336 91.924 -21.2808
692.789457 92.001 -22.2132
697.809695 92.077 -23.1545
702.866312 92.153 -24.1045
707.959571 92.229 -25.0630
713.089738 92.303 -26.0291
718.257080 92.377 -27.0017
723.461867 92.450 -27.9791
728.704370 92.521 -28.9597
733.984862 92.590 -29.9436
739.303619 92.658 -30.9336
744.660918 92.724 -31.9340
750.057038 92.789 -32.9474
755.492260 92.854 -33.9734
760.966869 92.919 -35.0083
766.481148 92.986 -36.0486
772.035387 93.055 -37.0924
777.629873 93.124 -38.1389
783.264900 93.194 -39.1879
788.940760 93.264 -40.2393
794.657750 93.331 -41.2932
800.416168 93.395 -42.3493
806.216313 93.455 -43.4073
812.058489 93.512 -44.4669
817.943000 93.567 -45.5282
823.870152 93.621 -46.5908
829.840255 93.674 -47.6538
835.853619 93.728 -48.7157
841.910559 93.781 -49.7754
848.011390 93.835 -50.8332
854.156430 93.886 -51.8923
860.346000 93.934 -52.9562
866.580422 93.979 -54.0259
872.860020 94.020 -55.0997
879.185124 94.058 -56.1758
885.556062 94.091 -57.2530
891.973166 94.122 -58.3308
898.436771 94.150 -59.4092
904.947215 94.176 -60.4883
911.504835 94.200 -61.5679
918.109975 94.222 -62.6484
924.762978 94.242 -63.7297
931.464192 94.260 -64.8113
938.213966 94.278 -65.8918
945.012651 94.293 -66.9692
951.860602 94.307 -68.0423
958.758176 94.319 -69.1120
965.705733 94.329 -70.1804
972.703635 94.338 -71.2491
979.752246 94.345 -72.3183
986.851935 94.352 -73.3873
994.003071 94.358 -74.4555
1001.206027 94.366 -75.5217
1008.461179 94.375 -76.5850
1015.768904 94.386 -77.6443
1023.129584 94.400 -78.6985
1030.543603 94.417 -79.7460
1038.011347 94.435 -80.7850
1045.533205 94.454 -81.8149
1053.109569 94.473 -82.8370
1060.740836 94.491 -83.8530
1068.427401 94.509 -84.8635
1076.169666 94.527 -85.8679
1083.968035 94.544 -86.8649
1091.822915 94.560 -87.8534
1099.734713 94.574 -88.8329
1107.703844 94.588 -89.8030
1115.730723 94.599 -90.7637
1123.815768 94.608 -91.7145
1131.959400 94.615 -92.6544
1140.162045 94.619 -93.5823
1148.424129 94.622 -94.4978
1156.746083 94.624 -95.4028
1165.128342 94.627 -96.3009
1173.571343 94.632 -97.1952
1182.075524 94.639 -98.0871
1190.641331 94.649 -98.9767
1199.269209 94.660 -99.8643
1207.959608 94.673 -100.7504
1216.712981 94.686 -101.6362
1225.529785 94.700 -102.5229
1234.410479 94.715 -103.4114
1243.355526 94.730 -104.3026
1252.365393 94.745 -105.1984
1261.440549 94.760 -106.1021
1270.581467 94.775 -107.0168
1279.788624 94.790 -107.9445
1289.062500 94.805 -108.8860
1298.403578 94.821 -109.8412
1307.812346 94.836 -110.8101
1317.289293 94.852 -111.7927
1326.834914 94.868 -112.7885
1336.449707 94.883 -113.7968
1346.134173 94.898 -114.8169
1355.888816 94.911 -115.8487
1365.714145 94.924 -116.8929
1375.610673 94.934 -117.9499
1385.578915 94.943 -119.0188
1395.619391 94.949 -120.0981
1405.732624 94.953 -121.1862
1415.919142 94.954 -122.2812
1426.179476 94.951 -123.3817
1436.514160 94.944 -124.4867
1446.923734 94.931 -125.5959
1457.408740 94.913 -126.7095
1467.969724 94.886 -127.8263
1478.607238 94.852 -128.9442
1489.321836 94.808 -130.0614
1500.114076 94.753 -131.1768
1510.984521 94.686 -132.2897
1521.933737 94.609 -133.3989
1532.962297 94.519 -134.5027
1544.070773 94.419 -135.5989
1555.259747 94.307 -136.6848
1566.529800 94.185 -137.7583
1577.881521 94.053 -138.8186
1589.315501 93.913 -139.8648
1600.832336 93.767 -140.8960
1612.432627 93.616 -141.9105
1624.116978 93.462 -142.9057
1635.886000 93.305 -143.8791
1647.740304 93.144 -144.8282
1659.680509 92.978 -145.7511
1671.707238 92.807 -146.6458
1683.821118 92.633 -147.5093
1696.022780 92.454 -148.3382
1708.312860 92.273 -149.1293
1720.692000 92.089 -149.8799
1733.160843 91.904 -150.5881
1745.720041 91.716 -151.2531
1758.370248 91.527 -151.8753
1771.112124 91.337 -152.4562
1783.946332 91.145 -152.9968
1796.873543 90.953 -153.4983
1809.894429 90.760 -153.9626
1823.009670 90.568 -154.3928
1836.219950 90.378 -154.7922
1849.525956 90.190 -155.1640
1862.928384 90.005 -155.5100
1876.427931 89.823 -155.8311
1890.025301 89.645 -156.1292
1903.721204 89.471 -156.4067
1917.516352 89.300 -156.6659
1931.411466 89.135 -156.9093
1945.407270 88.975 -157.1389
1959.504493 88.823 -157.3566
1973.703870 88.677 -157.5639
1988.006142 88.540 -157.7604
2002.412054 88.410 -157.9446
2016.922357 88.287 -158.1149
2031.537808 88.171 -158.2692
2046.259169 88.063 -158.4049
2061.087206 87.961 -158.5200
2076.022694 87.864 -158.6137
2091.066410 87.769 -158.6864
2106.219139 87.676 -158.7385
2121.481671 87.582 -158.7712
2136.854802 87.486 -158.7859
2152.339333 87.386 -158.7827
2167.936071 87.283 -158.7598
2183.645829 87.174 -158.7134
2199.469427 87.060 -158.6388
2215.407689 86.939 -158.5299
2231.461446 86.810 -158.3779
2247.631536 86.672 -158.1724
2263.918800 86.526 -157.9013
2280.324089 86.370 -157.5524
2296.848258 86.207 -157.1116
2313.492167 86.037 -156.5633
2330.256685 85.866 -155.8914
2347.142685 85.697 -155.0822
2364.151049 85.535 -154.1271
2381.282662 85.384 -153.0248
2398.538418 85.248 -151.7823
2415.919216 85.131 -150.4148
2433.425962 85.036 -148.9453
2451.059570 84.966 -147.4042
2468.820958 84.920 -145.8282
2486.711052 84.900 -144.2585
2504.730786 84.904 -142.7373
2522.881098 84.933 -141.3038
2541.162934 84.983 -139.9909
2559.577248 85.053 -138.8230
2578.125000 85.140 -137.8166
2596.807157 85.239 -136.9802
2615.624692 85.348 -136.3140
2634.578586 85.465 -135.8103
2653.669829 85.586 -135.4551
2672.899414 85.711 -135.2287
2692.268345 85.840 -135.1062
2711.777632 85.971 -135.0592
2731.428290 86.103 -135.0591
2751.221345 86.232 -135.0811
2771.157829 86.354 -135.1060
2791.238781 86.469 -135.1223
2811.465248 86.573 -135.1251
2831.838284 86.667 -135.1155
2852.358952 86.751 -135.1003
2873.028321 86.826 -135.0909
2893.847468 86.895 -135.1023
2914.817480 86.963 -135.1498
2935.939449 87.032 -135.2464
2957.214476 87.105 -135.4000
2978.643672 87.186 -135.6137
3000.228152 87.275 -135.8848
3021.969041 87.373 -136.2047
3043.867475 87.483 -136.5606
3065.924593 87.603 -136.9379
3088.141547 87.732 -137.3233
3110.519493 87.868 -137.7072
3133.059600 88.006 -138.0852
3155.763041 88.140 -138.4595
3178.631001 88.265 -138.8404
3201.664672 88.377 -139.2439
3224.865254 88.473 -139.6888
3248.233957 88.552 -140.1931
3271.771999 88.612 -140.7713
3295.480608 88.655 -141.4315
3319.361019 88.679 -142.1718
3343.414477 88.685 -142.9789
3367.642236 88.673 -143.8283
3392.045560 88.643 -144.6867
3416.625721 88.593 -145.5171
3441.383999 88.521 -146.2832
3466.321686 88.426 -146.9533
3491.440082 88.304 -147.5028
3516.740496 88.156 -147.9146
3542.224247 87.981 -148.1806
3567.892664 87.784 -148.2993
3593.747085 87.572 -148.2741
3619.788858 87.357 -148.1113
3646.019340 87.152 -147.8190
3672.439900 86.969 -147.4068
3699.051913 86.821 -146.8869
3725.856768 86.716 -146.2767
3752.855862 86.659 -145.6020
3780.050603 86.649 -144.8983
3807.442408 86.679 -144.2096
3835.032705 86.742 -143.5853
3862.822933 86.827 -143.0751
3890.814540 86.922 -142.7243
3919.008986 87.020 -142.5661
3947.407741 87.115 -142.6168
3976.012284 87.204 -142.8710
4004.824108 87.285 -143.2996
4033.844715 87.362 -143.8489
4063.075616 87.434 -144.4462
4092.518337 87.503 -145.0072
4122.174412 87.569 -145.4478
4152.045387 87.633 -145.6965
4182.132820 87.696 -145.7043
4212.438278 87.763 -145.4504
4242.963342 87.840 -144.9428
4273.709604 87.938 -144.2150
4304.678665 88.068 -143.3197
4335.872141 88.240 -142.3198
4367.291658 88.460 -141.2792
4398.938854 88.728 -140.2542
4430.815378 89.038 -139.2888
4462.922893 89.376 -138.4142
4495.263072 89.723 -137.6538
4527.837601 90.063 -137.0287
4560.648179 90.378 -136.5605
4593.696515 90.655 -136.2694
4626.984334 90.886 -136.1691
4660.513370 91.068 -136.2600
4694.285371 91.202 -136.5230
4728.302098 91.293 -136.9179
4762.565324 91.347 -137.3892
4797.076835 91.368 -137.8792
4831.838432 91.361 -138.3431
4866.851925 91.332 -138.7617
4902.119140 91.286 -139.1461
4937.641916 91.230 -139.5336
4973.422105 91.175 -139.9755
5009.461572 91.131 -140.5221
5045.762195 91.109 -141.2110
5082.325868 91.116 -142.0607
5119.154496 91.156 -143.0729
5156.250000 91.226 -144.2422
5193.614313 91.319 -145.5689
5231.249383 91.425 -147.0659
5269.157173 91.537 -148.7570
5307.339658 91.647 -150.6670
5345.798829 91.752 -152.8068
5384.536691 91.850 -155.1630
5423.555263 91.938 -157.6951
5462.856580 92.012 -160.3452
5502.442691 92.063 -163.0549
5542.315659 92.081 -165.7816
5582.477563 92.059 -168.5053
5622.930497 91.990 -171.2231
5663.676569 91.871 -173.9348
5704.717904 91.703 -176.6269
5746.056642 91.485 -179.2640
5787.694937 91.215 178.2095
5829.634960 90.886 175.8580
5871.878898 90.489 173.7451
5914.428953 90.013 171.9360
5957.287343 89.450 170.5166
6000.456303 88.802 169.6246
6043.938083 88.080 169.4708
6087.734950 87.312 170.3275
6131.849187 86.544 172.4523
6176.283094 85.839 175.9366
6221.038987 85.264 -179.4707
6266.119200 84.872 -174.4089
6311.526083 84.675 -169.6859
6357.262002 84.642 -165.9199
6403.329344 84.718 -163.3373
6449.730508 84.841 -161.8199
6496.467914 84.961 -161.0700
6543.543998 85.045 -160.7608
6590.961215 85.071 -160.6283
6638.722037 85.035 -160.5005
6686.828954 84.951 -160.2837
6735.284473 84.841 -159.9311
6784.091120 84.735 -159.4228
6833.251441 84.654 -158.7670
6882.767998 84.605 -158.0145
6932.643372 84.580 -157.2599
6982.880164 84.563 -156.6132
7033.480992 84.539 -156.1519
7084.448495 84.505 -155.8801
7135.785329 84.463 -155.7215
7187.494171 84.418 -155.5563
7239.577717 84.371 -155.2825
7292.038681 84.321 -154.8635
7344.879799 84.266 -154.3251
7398.103826 84.211 -153.7089
7451.713536 84.167 -153.0199
7505.711724 84.146 -152.2122
7560.101205 84.159 -151.2299
7614.884815 84.208 -150.0693
7670.065409 84.294 -148.8056
7725.645865 84.416 -147.5581
7781.629080 84.578 -146.4221
7838.017972 84.780 -145.4273
7894.815481 85.016 -144.5602
7952.024569 85.271 -143.8268
8009.648217 85.527 -143.2898
8067.689429 85.764 -143.0370
8126.151233 85.970 -143.1007
8185.036674 86.134 -143.3980
8244.348824 86.250 -143.7442
8304.090774 86.320 -143.9333
8364.265639 86.363 -143.8307
8424.876556 86.408 -143.4217
8485.926684 86.494 -142.8020
8547.419207 86.645 -142.1292
8609.357330 86.862 -141.5668
8671.744282 87.127 -141.2444
8734.583316 87.414 -141.2407
8797.877707 87.708 -141.5776
8861.630756 87.999 -142.2296
8925.845785 88.280 -143.1524
8990.526143 88.537 -144.3169
9055.675202 88.752 -145.7165
9121.296357 88.913 -147.3315
9187.393031 89.021 -149.0904
9253.968668 89.083 -150.8817
9321.026740 89.116 -152.6213
9388.570742 89.132 -154.3130
9456.604196 89.139 -156.0330
9525.130648 89.134 -157.8450
9594.153671 89.104 -159.7312
9663.676863 89.031 -161.5955
9733.703850 88.900 -163.3138
9804.238280 88.707 -164.7634
9875.283832 88.459 -165.8142
9946.844210 88.170 -166.3310
10018.923143 87.860 -166.2208
10091.524390 87.556 -165.4995
10164.651736 87.288 -164.3205
10238.308993 87.088 -162.9385
10312.500000 86.968 -161.6281
10387.228626 86.917 -160.6041
10462.498767 86.911 -159.9733
10538.314345 86.934 -159.7242
10614.679315 86.979 -159.7557
10691.597657 87.041 -159.9381
10769.073381 87.119 -160.1663
10847.110526 87.219 -160.3638
10925.713161 87.352 -160.4658
11004.885382 87.528 -160.4393
11084.631318 87.746 -160.3285
11164.955126 87.995 -160.2475
11245.860993 88.256 -160.3103
11327.353138 88.507 -160.5840
11409.435808 88.722 -161.1075
11492.113283 88.876 -161.9064
11575.389873 88.950 -162.9492
11659.269920 88.935 -164.1129
11743.757796 88.832 -165.2349
11828.857906 88.658 -166.2013
11914.574686 88.440 -166.9627
12000.912606 88.210 -167.4877
12087.876166 87.993 -167.7434
12175.469900 87.812 -167.7250
12263.698373 87.694 -167.4822
12352.566187 87.657 -167.1232
12442.077974 87.696 -166.7990
12532.238400 87.786 -166.6438
12623.052165 87.897 -166.6917
12714.524005 88.009 -166.8622
12806.658687 88.111 -167.0473
12899.461015 88.207 -167.1954
12992.935827 88.306 -167.3083
13087.087996 88.415 -167.4058
13181.922430 88.538 -167.5167
13277.444074 88.678 -167.6703
13373.657907 88.843 -167.8885
13470.568945 89.032 -168.2151
13568.182241 89.232 -168.7234
13666.502883 89.426 -169.4488
13765.535996 89.596 -170.3365
13865.286744 89.732 -171.2824
13965.760328 89.835 -172.1875
14066.961984 89.915 -172.9768
14168.896989 89.985 -173.6357
14271.570658 90.058 -174.2437
14374.988342 90.138 -174.9329
14479.155433 90.214 -175.8184
14584.077362 90.268 -176.9576
14689.759598 90.284 -178.3155
14796.207652 90.254 -179.7620
14903.427072 90.181 178.8651
15011.423448 90.079 177.7005
15120.202410 89.976 176.8203
15229.769630 89.893 176.1918
15340.130819 89.845 175.6673
15451.291730 89.826 175.0709
15563.258160 89.809 174.2878
15676.035944 89.764 173.3126
15789.630962 89.672 172.2631
15904.049137 89.528 171.3119
16019.296433 89.350 170.5851
16135.378859 89.170 170.1202
16252.302465 89.016 169.8506
16370.073348 88.909 169.6274
16488.697648 88.854 169.3041
16608.181548 88.838 168.7957
16728.531278 88.837 168.1030
16849.753112 88.834 167.3114
16971.853368 88.813 166.5258
17094.838414 88.772 165.8226
17218.714660 88.710 165.2522
17343.488565 88.630 164.8224
17469.166632 88.535 164.5078
17595.755415 88.427 164.2834
17723.261512 88.303 164.1300
17851.691571 88.168 164.0531
17981.052287 88.025 164.0737
18111.350404 87.881 164.1963
18242.592715 87.748 164.4051
18374.786062 87.632 164.6407
18507.937336 87.537 164.8113
18642.053479 87.458 164.8367
18777.141484 87.384 164.6683
18913.208391 87.304 164.3142
19050.261296 87.212 163.8145
19188.307342 87.107 163.2017
19327.353727 86.994 162.4996
19467.407699 86.880 161.7180
19608.476560 86.774 160.8857
19750.567664 86.684 160.0736
19893.688419 86.619 159.4003
20037.846286 86.585 159.0128
